#
# Source: https://hallcweb.jlab.org/resdata/database/
# Uncertainty values shown reflect both systematic and statistical uncertainties.
#
# E      EP       Theta       Q^2           W^2       Nu       Epsilon    Gamma         x        Sigma         Uncertainty
# (Gev)  (Gev)    (degrees)   ((Gev/c)^2)   (Gev^2)   (Gev)                                      (nb/Ser*Gev)
#
2.445    0.705    20.000      0.208         3.936     1.740    0.508      1.698e-003    0.064    1.617e+002    5.360e+000    
2.445    0.715    20.000      0.211         3.915     1.730    0.514      1.707e-003    0.065    1.560e+002    5.182e+000    
2.445    0.725    20.000      0.214         3.893     1.720    0.520      1.716e-003    0.066    1.637e+002    5.435e+000    
2.445    0.735    20.000      0.217         3.871     1.710    0.526      1.725e-003    0.068    1.631e+002    5.415e+000    
2.445    0.745    20.000      0.220         3.850     1.700    0.532      1.734e-003    0.069    1.592e+002    5.288e+000    
2.445    0.755    20.000      0.223         3.828     1.690    0.538      1.743e-003    0.070    1.706e+002    5.667e+000    
2.445    0.765    20.000      0.226         3.806     1.680    0.543      1.752e-003    0.072    1.664e+002    5.525e+000    
2.445    0.775    20.000      0.229         3.784     1.670    0.549      1.760e-003    0.073    1.740e+002    5.784e+000    
2.445    0.785    20.000      0.231         3.763     1.660    0.555      1.770e-003    0.074    1.692e+002    5.624e+000    
2.445    0.795    20.000      0.234         3.741     1.650    0.560      1.779e-003    0.076    1.665e+002    5.548e+000    
2.445    0.805    20.000      0.237         3.719     1.640    0.566      1.788e-003    0.077    1.731e+002    5.772e+000    
2.445    0.835    20.000      0.246         3.654     1.610    0.582      1.816e-003    0.081    1.718e+002    5.764e+000    
2.445    0.845    20.000      0.249         3.632     1.600    0.588      1.825e-003    0.083    1.723e+002    5.789e+000    
2.445    0.855    20.000      0.252         3.611     1.590    0.593      1.835e-003    0.084    1.713e+002    5.753e+000    
2.445    0.865    20.000      0.255         3.589     1.580    0.598      1.844e-003    0.086    1.761e+002    5.909e+000    
2.445    0.875    20.000      0.258         3.567     1.570    0.604      1.854e-003    0.088    1.713e+002    5.757e+000    
2.445    0.885    20.000      0.261         3.546     1.560    0.609      1.863e-003    0.089    1.807e+002    6.069e+000    
2.445    0.895    20.000      0.264         3.524     1.550    0.614      1.873e-003    0.091    1.782e+002    5.983e+000    
2.445    0.905    20.000      0.267         3.502     1.540    0.619      1.882e-003    0.092    1.820e+002    6.114e+000    
2.445    0.915    20.000      0.270         3.481     1.530    0.624      1.892e-003    0.094    1.818e+002    6.113e+000    
2.445    0.925    20.000      0.273         3.459     1.520    0.629      1.902e-003    0.096    1.804e+002    6.069e+000    
2.445    0.935    20.000      0.276         3.437     1.510    0.634      1.911e-003    0.097    1.704e+002    5.751e+000    
2.445    0.955    20.000      0.281         3.394     1.490    0.644      1.931e-003    0.101    1.876e+002    6.099e+000    
2.445    0.975    20.000      0.287         3.350     1.470    0.654      1.950e-003    0.104    1.836e+002    6.288e+000    
2.445    0.985    20.000      0.290         3.329     1.460    0.658      1.960e-003    0.106    1.807e+002    6.186e+000    
2.445    0.995    20.000      0.293         3.307     1.450    0.663      1.970e-003    0.108    1.802e+002    6.174e+000    
2.445    1.005    20.000      0.296         3.285     1.440    0.668      1.979e-003    0.110    1.821e+002    6.231e+000    
2.445    1.015    20.000      0.299         3.263     1.430    0.672      1.989e-003    0.111    1.903e+002    6.514e+000    
2.445    1.025    20.000      0.302         3.242     1.420    0.677      1.999e-003    0.113    1.918e+002    6.564e+000    
2.445    1.035    20.000      0.305         3.220     1.410    0.681      2.008e-003    0.115    1.902e+002    6.503e+000    
2.445    1.045    20.000      0.308         3.198     1.400    0.686      2.017e-003    0.117    1.923e+002    6.583e+000    
2.445    1.055    20.000      0.311         3.177     1.390    0.690      2.028e-003    0.119    2.010e+002    6.880e+000    
2.445    1.065    20.000      0.314         3.155     1.380    0.695      2.037e-003    0.121    2.004e+002    6.856e+000    
2.445    1.075    20.000      0.317         3.133     1.370    0.699      2.046e-003    0.123    2.026e+002    6.937e+000    
2.445    1.085    20.000      0.320         3.112     1.360    0.703      2.056e-003    0.125    2.068e+002    7.079e+000    
2.445    1.095    20.000      0.323         3.090     1.350    0.708      2.066e-003    0.127    2.187e+002    7.494e+000    
2.445    1.105    20.000      0.326         3.068     1.340    0.712      2.075e-003    0.130    2.251e+002    7.504e+000    
2.445    1.125    20.000      0.332         3.025     1.320    0.720      2.094e-003    0.134    2.218e+002    7.683e+000    
2.445    1.135    20.000      0.335         3.003     1.310    0.724      2.103e-003    0.136    2.342e+002    8.111e+000    
2.445    1.145    20.000      0.338         2.981     1.300    0.728      2.112e-003    0.138    2.361e+002    8.177e+000    
2.445    1.155    20.000      0.341         2.960     1.290    0.732      2.121e-003    0.141    2.450e+002    8.464e+000    
2.445    1.165    20.000      0.343         2.938     1.280    0.736      2.130e-003    0.143    2.543e+002    8.791e+000    
2.445    1.175    20.000      0.346         2.916     1.270    0.740      2.139e-003    0.145    2.618e+002    9.030e+000    
2.445    1.185    20.000      0.349         2.894     1.260    0.744      2.147e-003    0.148    2.797e+002    9.662e+000    
2.445    1.195    20.000      0.352         2.873     1.250    0.747      2.156e-003    0.150    2.932e+002    1.011e+001    
2.445    1.205    20.000      0.355         2.851     1.240    0.751      2.165e-003    0.153    2.933e+002    1.011e+001    
2.445    1.215    20.000      0.358         2.829     1.230    0.755      2.173e-003    0.155    2.970e+002    1.025e+001    
2.445    1.225    20.000      0.361         2.808     1.220    0.758      2.182e-003    0.158    3.059e+002    1.058e+001    
2.445    1.235    20.000      0.364         2.786     1.210    0.762      2.189e-003    0.160    2.896e+002    1.003e+001    
2.445    1.245    20.000      0.367         2.764     1.200    0.766      2.197e-003    0.163    2.861e+002    9.899e+000    
2.445    1.255    20.000      0.370         2.742     1.190    0.769      2.204e-003    0.166    2.764e+002    9.590e+000    
2.445    1.265    20.000      0.373         2.721     1.180    0.773      2.213e-003    0.168    2.689e+002    9.342e+000    
2.445    1.285    20.000      0.379         2.677     1.160    0.779      2.226e-003    0.174    2.635e+002    8.542e+000    
2.445    1.295    20.000      0.382         2.656     1.150    0.783      2.234e-003    0.177    2.646e+002    8.686e+000    
2.445    1.305    20.000      0.385         2.634     1.140    0.786      2.240e-003    0.180    2.416e+002    8.032e+000    
2.445    1.315    20.000      0.388         2.612     1.130    0.789      2.246e-003    0.183    2.442e+002    8.128e+000    
2.445    1.325    20.000      0.391         2.591     1.120    0.792      2.253e-003    0.186    2.412e+002    8.029e+000    
2.445    1.335    20.000      0.394         2.569     1.110    0.796      2.259e-003    0.189    2.388e+002    7.944e+000    
2.445    1.345    20.000      0.397         2.547     1.100    0.799      2.264e-003    0.192    2.452e+002    8.154e+000    
2.445    1.355    20.000      0.399         2.525     1.090    0.802      2.269e-003    0.195    2.403e+002    7.987e+000    
2.445    1.365    20.000      0.402         2.504     1.080    0.805      2.275e-003    0.199    2.445e+002    8.129e+000    
2.445    1.375    20.000      0.405         2.482     1.070    0.808      2.279e-003    0.202    2.580e+002    8.572e+000    
2.445    1.385    20.000      0.408         2.460     1.060    0.811      2.283e-003    0.205    2.584e+002    8.584e+000    
2.445    1.395    20.000      0.411         2.439     1.050    0.814      2.288e-003    0.209    2.646e+002    8.770e+000    
2.445    1.405    20.000      0.414         2.417     1.040    0.817      2.291e-003    0.212    2.768e+002    9.173e+000    
2.445    1.415    20.000      0.417         2.395     1.030    0.819      2.293e-003    0.216    2.904e+002    9.715e+000    
2.445    1.425    20.000      0.420         2.373     1.020    0.822      2.296e-003    0.219    2.999e+002    9.751e+000    
2.445    1.435    20.000      0.423         2.352     1.010    0.825      2.299e-003    0.223    3.120e+002    1.014e+001    
2.445    1.445    20.000      0.426         2.330     1.000    0.828      2.300e-003    0.227    3.240e+002    1.053e+001    
2.445    1.455    20.000      0.429         2.308     0.990    0.830      2.301e-003    0.231    3.472e+002    1.129e+001    
2.445    1.465    20.000      0.432         2.287     0.980    0.833      2.303e-003    0.235    3.648e+002    1.186e+001    
2.445    1.475    20.000      0.435         2.265     0.970    0.836      2.303e-003    0.239    3.830e+002    1.247e+001    
2.445    1.485    20.000      0.438         2.243     0.960    0.838      2.302e-003    0.243    3.795e+002    1.236e+001    
2.445    1.495    20.000      0.441         2.221     0.950    0.841      2.300e-003    0.247    3.828e+002    1.249e+001    
2.445    1.515    20.000      0.447         2.178     0.930    0.846      2.297e-003    0.256    3.124e+002    1.135e+001    
2.445    1.525    20.000      0.450         2.156     0.920    0.848      2.294e-003    0.260    3.020e+002    1.100e+001    
2.445    1.535    20.000      0.453         2.135     0.910    0.850      2.292e-003    0.265    2.908e+002    1.059e+001    
2.445    1.545    20.000      0.456         2.113     0.900    0.853      2.287e-003    0.270    2.649e+002    9.676e+000    
2.445    1.555    20.000      0.458         2.091     0.890    0.855      2.282e-003    0.274    2.564e+002    9.391e+000    
2.445    1.565    20.000      0.461         2.070     0.880    0.857      2.278e-003    0.279    2.555e+002    9.368e+000    
2.445    1.575    20.000      0.464         2.048     0.870    0.859      2.271e-003    0.284    2.476e+002    8.631e+000    
2.445    1.585    20.000      0.467         2.026     0.860    0.862      2.263e-003    0.289    2.346e+002    8.016e+000    
2.445    1.595    20.000      0.470         2.004     0.850    0.864      2.255e-003    0.295    2.243e+002    7.677e+000    
2.445    1.605    20.000      0.473         1.983     0.840    0.866      2.247e-003    0.300    2.217e+002    7.591e+000    
2.445    1.615    20.000      0.476         1.961     0.830    0.868      2.237e-003    0.306    2.163e+002    7.420e+000    
2.445    1.625    20.000      0.479         1.939     0.820    0.870      2.226e-003    0.311    2.155e+002    7.399e+000    
2.445    1.635    20.000      0.482         1.918     0.810    0.872      2.216e-003    0.317    2.149e+002    7.383e+000    
2.445    1.645    20.000      0.485         1.896     0.800    0.874      2.203e-003    0.323    2.129e+002    7.311e+000    
2.445    1.655    20.000      0.488         1.874     0.790    0.876      2.188e-003    0.329    2.220e+002    7.627e+000    
2.445    1.675    20.000      0.494         1.831     0.770    0.880      2.159e-003    0.342    2.205e+002    8.222e+000    
2.445    1.685    20.000      0.497         1.809     0.760    0.881      2.142e-003    0.348    2.095e+002    7.885e+000    
2.445    1.695    20.000      0.500         1.787     0.750    0.883      2.123e-003    0.355    2.300e+002    8.582e+000    
2.445    1.705    20.000      0.503         1.766     0.740    0.885      2.106e-003    0.362    2.441e+002    9.060e+000    
2.445    1.715    20.000      0.506         1.744     0.730    0.887      2.084e-003    0.369    2.354e+002    8.741e+000    
2.445    1.725    20.000      0.508         1.722     0.720    0.888      2.062e-003    0.376    2.505e+002    9.271e+000    
2.445    1.735    20.000      0.511         1.700     0.710    0.890      2.039e-003    0.384    2.689e+002    9.883e+000    
2.445    1.755    20.000      0.517         1.657     0.690    0.893      1.990e-003    0.400    3.132e+002    1.062e+001    
2.445    1.765    20.000      0.520         1.635     0.680    0.895      1.963e-003    0.408    3.391e+002    1.147e+001    
2.445    1.775    20.000      0.523         1.614     0.670    0.896      1.936e-003    0.416    3.572e+002    1.207e+001    
2.445    1.785    20.000      0.526         1.592     0.660    0.898      1.906e-003    0.425    3.957e+002    1.334e+001    
2.445    1.795    20.000      0.529         1.570     0.650    0.899      1.874e-003    0.434    4.387e+002    1.477e+001    
2.445    1.805    20.000      0.532         1.549     0.640    0.901      1.844e-003    0.443    4.822e+002    1.623e+001    
2.445    1.815    20.000      0.535         1.527     0.630    0.902      1.809e-003    0.453    5.319e+002    1.789e+001    
2.445    1.825    20.000      0.538         1.505     0.620    0.904      1.772e-003    0.462    5.739e+002    1.929e+001    
2.445    1.835    20.000      0.541         1.483     0.610    0.905      1.734e-003    0.473    6.149e+002    2.072e+001    
2.445    1.845    20.000      0.544         1.462     0.600    0.906      1.698e-003    0.483    6.447e+002    2.217e+001    
2.445    1.855    20.000      0.547         1.440     0.590    0.908      1.656e-003    0.494    5.778e+002    2.098e+001    
2.445    1.865    20.000      0.550         1.418     0.580    0.909      1.613e-003    0.505    5.155e+002    1.892e+001    
2.445    1.875    20.000      0.553         1.397     0.570    0.910      1.572e-003    0.517    4.326e+002    2.578e+001    
2.445    1.885    20.000      0.556         1.375     0.560    0.911      1.525e-003    0.529    3.293e+002    1.970e+001    
2.445    1.895    20.000      0.559         1.353     0.550    0.913      1.477e-003    0.541    2.503e+002    1.504e+001    
2.445    1.905    20.000      0.562         1.331     0.540    0.914      1.427e-003    0.554    1.537e+002    9.316e+000    
2.445    1.915    20.000      0.565         1.310     0.530    0.915      1.379e-003    0.568    9.964e+001    6.083e+000    
2.445    1.925    20.000      0.568         1.288     0.520    0.916      1.325e-003    0.582    5.820e+001    3.581e+000    
2.445    0.585    30.000      0.383         3.986     1.860    0.410      6.476e-004    0.110    5.465e+001    2.029e+000    
2.445    0.595    30.000      0.390         3.961     1.850    0.416      6.489e-004    0.112    5.171e+001    1.911e+000    
2.445    0.605    30.000      0.396         3.936     1.840    0.422      6.504e-004    0.115    5.280e+001    1.948e+000    
2.445    0.615    30.000      0.403         3.910     1.830    0.428      6.515e-004    0.117    5.060e+001    1.856e+000    
2.445    0.625    30.000      0.409         3.885     1.820    0.434      6.530e-004    0.120    5.146e+001    1.889e+000    
2.445    0.635    30.000      0.416         3.860     1.810    0.440      6.543e-004    0.122    5.014e+001    1.840e+000    
2.445    0.645    30.000      0.422         3.834     1.800    0.445      6.554e-004    0.125    5.176e+001    1.900e+000    
2.445    0.655    30.000      0.429         3.809     1.790    0.451      6.567e-004    0.128    5.078e+001    1.865e+000    
2.445    0.665    30.000      0.436         3.784     1.780    0.457      6.580e-004    0.130    5.057e+001    1.869e+000    
2.445    0.675    30.000      0.442         3.758     1.770    0.463      6.590e-004    0.133    5.108e+001    1.893e+000    
2.445    0.685    30.000      0.449         3.733     1.760    0.468      6.603e-004    0.136    5.175e+001    1.921e+000    
2.445    0.695    30.000      0.455         3.708     1.750    0.474      6.615e-004    0.139    5.272e+001    1.960e+000    
2.445    0.705    30.000      0.462         3.683     1.740    0.480      6.627e-004    0.141    5.091e+001    1.903e+000    
2.445    0.715    30.000      0.468         3.657     1.730    0.485      6.637e-004    0.144    5.334e+001    1.934e+000    
2.445    0.725    30.000      0.475         3.632     1.720    0.491      6.647e-004    0.147    5.090e+001    1.776e+000    
2.445    0.735    30.000      0.481         3.607     1.710    0.496      6.659e-004    0.150    5.092e+001    1.771e+000    
2.445    0.745    30.000      0.488         3.581     1.700    0.501      6.666e-004    0.153    5.191e+001    1.811e+000    
2.445    0.755    30.000      0.494         3.556     1.690    0.507      6.677e-004    0.156    4.903e+001    1.708e+000    
2.445    0.765    30.000      0.501         3.531     1.680    0.512      6.686e-004    0.159    5.047e+001    1.759e+000    
2.445    0.785    30.000      0.514         3.480     1.660    0.523      6.702e-004    0.165    4.923e+001    1.907e+000    
2.445    0.795    30.000      0.521         3.455     1.650    0.528      6.711e-004    0.168    4.881e+001    1.895e+000    
2.445    0.805    30.000      0.527         3.429     1.640    0.533      6.716e-004    0.171    4.829e+001    1.878e+000    
2.445    0.815    30.000      0.534         3.404     1.630    0.538      6.724e-004    0.174    4.955e+001    1.935e+000    
2.445    0.825    30.000      0.540         3.379     1.620    0.543      6.731e-004    0.178    4.905e+001    1.920e+000    
2.445    0.835    30.000      0.547         3.354     1.610    0.548      6.737e-004    0.181    4.917e+001    1.931e+000    
2.445    0.845    30.000      0.553         3.328     1.600    0.553      6.740e-004    0.184    4.888e+001    1.929e+000    
2.445    0.855    30.000      0.560         3.303     1.590    0.558      6.746e-004    0.188    4.782e+001    1.896e+000    
2.445    0.865    30.000      0.567         3.278     1.580    0.563      6.751e-004    0.191    4.709e+001    1.878e+000    
2.445    0.875    30.000      0.573         3.252     1.570    0.568      6.753e-004    0.194    5.076e+001    2.007e+000    
2.445    0.885    30.000      0.580         3.227     1.560    0.573      6.756e-004    0.198    5.166e+001    1.905e+000    
2.445    0.895    30.000      0.586         3.202     1.550    0.577      6.759e-004    0.201    5.234e+001    1.879e+000    
2.445    0.905    30.000      0.593         3.176     1.540    0.582      6.758e-004    0.205    5.115e+001    1.837e+000    
2.445    0.915    30.000      0.599         3.151     1.530    0.587      6.760e-004    0.209    5.145e+001    1.848e+000    
2.445    0.925    30.000      0.606         3.126     1.520    0.591      6.761e-004    0.212    5.131e+001    1.838e+000    
2.445    0.935    30.000      0.612         3.100     1.510    0.596      6.759e-004    0.216    5.177e+001    1.850e+000    
2.445    0.945    30.000      0.619         3.075     1.500    0.600      6.758e-004    0.220    5.238e+001    1.874e+000    
2.445    0.965    30.000      0.632         3.025     1.480    0.609      6.755e-004    0.228    5.250e+001    2.078e+000    
2.445    0.975    30.000      0.638         2.999     1.470    0.614      6.749e-004    0.231    5.578e+001    2.199e+000    
2.445    0.985    30.000      0.645         2.974     1.460    0.618      6.745e-004    0.235    5.867e+001    2.314e+000    
2.445    0.995    30.000      0.652         2.949     1.450    0.622      6.740e-004    0.239    5.724e+001    2.266e+000    
2.445    1.005    30.000      0.658         2.923     1.440    0.627      6.731e-004    0.244    6.208e+001    2.460e+000    
2.445    1.015    30.000      0.665         2.898     1.430    0.631      6.725e-004    0.248    6.675e+001    2.642e+000    
2.445    1.025    30.000      0.671         2.873     1.420    0.635      6.717e-004    0.252    7.067e+001    2.761e+000    
2.445    1.035    30.000      0.678         2.847     1.410    0.639      6.705e-004    0.256    7.313e+001    2.637e+000    
2.445    1.045    30.000      0.684         2.822     1.400    0.643      6.696e-004    0.261    6.874e+001    2.477e+000    
2.445    1.055    30.000      0.691         2.797     1.390    0.647      6.685e-004    0.265    6.657e+001    2.395e+000    
2.445    1.065    30.000      0.698         2.771     1.380    0.651      6.670e-004    0.269    6.371e+001    2.295e+000    
2.445    1.075    30.000      0.704         2.746     1.370    0.655      6.657e-004    0.274    5.871e+001    2.114e+000    
2.445    1.085    30.000      0.711         2.721     1.360    0.659      6.643e-004    0.278    5.563e+001    2.004e+000    
2.445    1.095    30.000      0.717         2.695     1.350    0.663      6.624e-004    0.283    5.116e+001    1.841e+000    
2.445    1.105    30.000      0.724         2.670     1.340    0.667      6.608e-004    0.288    5.142e+001    1.859e+000    
2.445    1.115    30.000      0.730         2.645     1.330    0.670      6.590e-004    0.293    4.903e+001    1.772e+000    
2.445    1.125    30.000      0.737         2.620     1.320    0.674      6.571e-004    0.297    4.792e+001    1.735e+000    
2.445    1.135    30.000      0.743         2.594     1.310    0.678      6.547e-004    0.302    4.680e+001    1.699e+000    
2.445    1.145    30.000      0.750         2.569     1.300    0.682      6.525e-004    0.307    4.715e+001    1.713e+000    
2.445    1.155    30.000      0.756         2.544     1.290    0.685      6.503e-004    0.312    4.526e+001    1.650e+000    
2.445    1.165    30.000      0.763         2.518     1.280    0.689      6.474e-004    0.318    4.743e+001    1.726e+000    
2.445    1.175    30.000      0.769         2.493     1.270    0.692      6.448e-004    0.323    4.740e+001    1.796e+000    
2.445    1.185    30.000      0.776         2.468     1.260    0.696      6.421e-004    0.328    4.746e+001    1.931e+000    
2.445    1.195    30.000      0.783         2.442     1.250    0.699      6.388e-004    0.334    4.687e+001    1.788e+000    
2.445    1.205    30.000      0.789         2.417     1.240    0.703      6.358e-004    0.339    4.950e+001    1.809e+000    
2.445    1.215    30.000      0.796         2.392     1.230    0.706      6.325e-004    0.345    5.033e+001    1.831e+000    
2.445    1.225    30.000      0.802         2.366     1.220    0.709      6.287e-004    0.350    5.509e+001    2.001e+000    
2.445    1.235    30.000      0.809         2.341     1.210    0.712      6.252e-004    0.356    5.796e+001    2.100e+000    
2.445    1.245    30.000      0.815         2.316     1.200    0.716      6.215e-004    0.362    6.127e+001    2.220e+000    
2.445    1.255    30.000      0.822         2.291     1.190    0.719      6.176e-004    0.368    6.923e+001    2.501e+000    
2.445    1.265    30.000      0.828         2.265     1.180    0.722      6.131e-004    0.374    7.122e+001    2.569e+000    
2.445    1.275    30.000      0.835         2.240     1.170    0.725      6.088e-004    0.380    7.322e+001    2.636e+000    
2.445    1.285    30.000      0.842         2.215     1.160    0.728      6.043e-004    0.387    7.035e+001    2.548e+000    
2.445    1.295    30.000      0.848         2.189     1.150    0.731      5.992e-004    0.393    6.014e+001    2.180e+000    
2.445    1.305    30.000      0.855         2.164     1.140    0.734      5.944e-004    0.399    5.379e+001    1.956e+000    
2.445    1.315    30.000      0.861         2.139     1.130    0.737      5.893e-004    0.406    4.797e+001    1.749e+000    
2.445    1.325    30.000      0.868         2.113     1.120    0.740      5.836e-004    0.413    4.293e+001    1.572e+000    
2.445    1.335    30.000      0.874         2.088     1.110    0.743      5.782e-004    0.420    3.972e+001    1.462e+000    
2.445    1.345    30.000      0.881         2.063     1.100    0.746      5.725e-004    0.427    3.742e+001    1.379e+000    
2.445    1.355    30.000      0.887         2.037     1.090    0.749      5.661e-004    0.434    3.588e+001    1.330e+000    
2.445    1.365    30.000      0.894         2.012     1.080    0.751      5.600e-004    0.441    3.461e+001    1.327e+000    
2.445    1.375    30.000      0.900         1.987     1.070    0.754      5.537e-004    0.448    3.165e+001    1.316e+000    
2.445    1.385    30.000      0.907         1.962     1.060    0.757      5.472e-004    0.456    3.116e+001    1.349e+000    
2.445    1.395    30.000      0.914         1.936     1.050    0.759      5.398e-004    0.464    3.192e+001    1.189e+000    
2.445    1.405    30.000      0.920         1.911     1.040    0.762      5.328e-004    0.471    3.093e+001    1.152e+000    
2.445    1.415    30.000      0.927         1.886     1.030    0.765      5.256e-004    0.479    3.040e+001    1.128e+000    
2.445    1.425    30.000      0.933         1.860     1.020    0.767      5.175e-004    0.488    3.083e+001    1.145e+000    
2.445    1.435    30.000      0.940         1.835     1.010    0.770      5.098e-004    0.496    3.016e+001    1.117e+000    
2.445    1.445    30.000      0.946         1.810     1.000    0.772      5.018e-004    0.504    3.117e+001    1.153e+000    
2.445    1.455    30.000      0.953         1.784     0.990    0.774      4.929e-004    0.513    2.995e+001    1.109e+000    
2.445    1.465    30.000      0.959         1.759     0.980    0.777      4.844e-004    0.522    3.010e+001    1.111e+000    
2.445    1.475    30.000      0.966         1.734     0.970    0.779      4.756e-004    0.531    3.086e+001    1.135e+000    
2.445    1.485    30.000      0.973         1.708     0.960    0.781      4.660e-004    0.540    3.128e+001    1.147e+000    
2.445    1.495    30.000      0.979         1.683     0.950    0.784      4.567e-004    0.549    3.494e+001    1.284e+000    
2.445    1.505    30.000      0.986         1.658     0.940    0.786      4.471e-004    0.559    3.507e+001    1.282e+000    
2.445    1.515    30.000      0.992         1.633     0.930    0.788      4.372e-004    0.569    3.696e+001    1.352e+000    
2.445    1.525    30.000      0.999         1.607     0.920    0.790      4.265e-004    0.578    3.990e+001    1.459e+000    
2.445    1.535    30.000      1.005         1.582     0.910    0.792      4.161e-004    0.589    4.531e+001    1.657e+000    
2.445    1.545    30.000      1.012         1.557     0.900    0.795      4.053e-004    0.599    4.825e+001    1.766e+000    
2.445    1.555    30.000      1.018         1.531     0.890    0.797      3.938e-004    0.610    5.534e+001    2.026e+000    
2.445    1.565    30.000      1.025         1.506     0.880    0.799      3.824e-004    0.621    6.018e+001    2.198e+000    
2.445    1.575    30.000      1.031         1.481     0.870    0.801      3.709e-004    0.631    5.948e+001    2.184e+000    
2.445    1.585    30.000      1.038         1.455     0.860    0.803      3.583e-004    0.643    5.886e+001    2.168e+000    
2.445    1.605    30.000      1.051         1.405     0.840    0.806      3.336e-004    0.667    3.791e+001    1.568e+000    
2.445    1.615    30.000      1.058         1.379     0.830    0.808      3.200e-004    0.679    2.609e+001    1.628e+000    
2.445    1.625    30.000      1.064         1.354     0.820    0.810      3.070e-004    0.691    1.633e+001    1.024e+000    
2.445    1.635    30.000      1.071         1.329     0.810    0.812      2.935e-004    0.705    1.006e+001    6.329e-001    
2.445    1.645    30.000      1.077         1.303     0.800    0.814      2.793e-004    0.717    5.678e+000    3.617e-001    
2.445    1.655    30.000      1.084         1.278     0.790    0.815      2.651e-004    0.731    3.438e+000    2.199e-001    
2.445    1.665    30.000      1.090         1.253     0.780    0.817      2.509e-004    0.745    1.643e+000    1.064e-001    
2.445    1.675    30.000      1.097         1.228     0.770    0.819      2.361e-004    0.759    6.679e-001    4.430e-002    
2.445    1.685    30.000      1.103         1.202     0.760    0.820      2.206e-004    0.773    2.494e-001    1.686e-002    
2.445    1.695    30.000      1.110         1.177     0.750    0.822      2.052e-004    0.789    4.994e-002    3.518e-003    
3.245    1.165    26.980      0.823         3.959     2.080    0.581      6.323e-004    0.211    3.653e+001    1.231e+000    
3.245    1.175    26.980      0.830         3.934     2.070    0.585      6.327e-004    0.214    3.644e+001    1.231e+000    
3.245    1.185    26.980      0.837         3.908     2.060    0.589      6.330e-004    0.216    3.623e+001    1.224e+000    
3.245    1.195    26.980      0.844         3.882     2.050    0.592      6.331e-004    0.219    3.698e+001    1.249e+000    
3.245    1.205    26.980      0.851         3.856     2.040    0.596      6.333e-004    0.222    3.618e+001    1.223e+000    
3.245    1.215    26.980      0.858         3.830     2.030    0.600      6.334e-004    0.225    3.589e+001    1.214e+000    
3.245    1.225    26.980      0.865         3.805     2.020    0.603      6.337e-004    0.228    3.633e+001    1.228e+000    
3.245    1.235    26.980      0.872         3.779     2.010    0.607      6.338e-004    0.231    3.606e+001    1.220e+000    
3.245    1.245    26.980      0.879         3.753     2.000    0.610      6.338e-004    0.234    3.769e+001    1.274e+000    
3.245    1.255    26.980      0.886         3.727     1.990    0.614      6.337e-004    0.237    3.684e+001    1.247e+000    
3.245    1.265    26.980      0.893         3.701     1.980    0.617      6.336e-004    0.240    3.653e+001    1.237e+000    
3.245    1.275    26.980      0.900         3.675     1.970    0.621      6.335e-004    0.244    3.651e+001    1.236e+000    
3.245    1.285    26.980      0.907         3.650     1.960    0.624      6.336e-004    0.247    3.738e+001    1.267e+000    
3.245    1.295    26.980      0.914         3.624     1.950    0.627      6.333e-004    0.250    3.575e+001    1.214e+000    
3.245    1.305    26.980      0.921         3.598     1.940    0.631      6.331e-004    0.253    3.542e+001    1.203e+000    
3.245    1.315    26.980      0.928         3.572     1.930    0.634      6.328e-004    0.256    3.645e+001    1.241e+000    
3.245    1.325    26.980      0.936         3.546     1.920    0.638      6.324e-004    0.260    3.620e+001    1.232e+000    
3.245    1.335    26.980      0.943         3.521     1.910    0.641      6.322e-004    0.263    3.661e+001    1.228e+000    
3.245    1.345    26.980      0.950         3.495     1.900    0.644      6.318e-004    0.266    3.625e+001    1.191e+000    
3.245    1.355    26.980      0.957         3.469     1.890    0.647      6.312e-004    0.270    3.523e+001    1.160e+000    
3.245    1.375    26.980      0.971         3.417     1.870    0.654      6.300e-004    0.277    3.379e+001    1.190e+000    
3.245    1.385    26.980      0.978         3.391     1.860    0.657      6.293e-004    0.280    3.335e+001    1.174e+000    
3.245    1.395    26.980      0.985         3.366     1.850    0.660      6.288e-004    0.284    3.316e+001    1.168e+000    
3.245    1.405    26.980      0.992         3.340     1.840    0.663      6.280e-004    0.287    3.319e+001    1.170e+000    
3.245    1.415    26.980      0.999         3.314     1.830    0.666      6.271e-004    0.291    3.293e+001    1.158e+000    
3.245    1.425    26.980      1.006         3.288     1.820    0.669      6.262e-004    0.295    3.396e+001    1.197e+000    
3.245    1.435    26.980      1.013         3.262     1.810    0.672      6.253e-004    0.298    3.338e+001    1.178e+000    
3.245    1.445    26.980      1.020         3.237     1.800    0.675      6.245e-004    0.302    3.339e+001    1.178e+000    
3.245    1.455    26.980      1.027         3.211     1.790    0.678      6.233e-004    0.306    3.396e+001    1.198e+000    
3.245    1.465    26.980      1.034         3.185     1.780    0.681      6.221e-004    0.310    3.308e+001    1.166e+000    
3.245    1.475    26.980      1.041         3.159     1.770    0.684      6.209e-004    0.313    3.479e+001    1.229e+000    
3.245    1.485    26.980      1.049         3.133     1.760    0.687      6.192e-004    0.318    3.321e+001    1.173e+000    
3.245    1.495    26.980      1.056         3.107     1.750    0.690      6.178e-004    0.322    3.447e+001    1.217e+000    
3.245    1.505    26.980      1.063         3.082     1.740    0.693      6.166e-004    0.326    3.388e+001    1.196e+000    
3.245    1.515    26.980      1.070         3.056     1.730    0.696      6.151e-004    0.330    3.681e+001    1.302e+000    
3.245    1.525    26.980      1.077         3.030     1.720    0.699      6.134e-004    0.334    3.670e+001    1.297e+000    
3.245    1.535    26.980      1.084         3.004     1.710    0.701      6.117e-004    0.338    3.842e+001    1.363e+000    
3.245    1.545    26.980      1.091         2.978     1.700    0.704      6.099e-004    0.342    3.820e+001    1.270e+000    
3.245    1.555    26.980      1.098         2.952     1.690    0.707      6.080e-004    0.346    3.987e+001    1.328e+000    
3.245    1.565    26.980      1.105         2.927     1.680    0.710      6.063e-004    0.350    4.049e+001    1.377e+000    
3.245    1.575    26.980      1.112         2.901     1.670    0.712      6.042e-004    0.355    4.073e+001    1.443e+000    
3.245    1.585    26.980      1.119         2.875     1.660    0.715      6.020e-004    0.359    4.194e+001    1.489e+000    
3.245    1.595    26.980      1.126         2.849     1.650    0.718      5.998e-004    0.364    4.142e+001    1.470e+000    
3.245    1.605    26.980      1.133         2.823     1.640    0.720      5.974e-004    0.368    3.946e+001    1.401e+000    
3.245    1.615    26.980      1.140         2.798     1.630    0.723      5.953e-004    0.373    3.839e+001    1.368e+000    
3.245    1.625    26.980      1.147         2.772     1.620    0.725      5.927e-004    0.377    3.588e+001    1.277e+000    
3.245    1.635    26.980      1.154         2.746     1.610    0.728      5.901e-004    0.382    3.444e+001    1.228e+000    
3.245    1.645    26.980      1.161         2.720     1.600    0.731      5.873e-004    0.387    3.227e+001    1.155e+000    
3.245    1.655    26.980      1.169         2.694     1.590    0.733      5.842e-004    0.392    3.201e+001    1.147e+000    
3.245    1.665    26.980      1.176         2.668     1.580    0.736      5.813e-004    0.397    3.003e+001    1.078e+000    
3.245    1.675    26.980      1.183         2.643     1.570    0.738      5.785e-004    0.402    2.930e+001    1.054e+000    
3.245    1.685    26.980      1.190         2.617     1.560    0.740      5.754e-004    0.406    2.823e+001    1.015e+000    
3.245    1.695    26.980      1.197         2.591     1.550    0.743      5.721e-004    0.412    2.809e+001    1.013e+000    
3.245    1.705    26.980      1.204         2.565     1.540    0.745      5.687e-004    0.417    2.775e+001    1.002e+000    
3.245    1.715    26.980      1.211         2.539     1.530    0.748      5.651e-004    0.422    2.731e+001    9.849e-001    
3.245    1.725    26.980      1.218         2.514     1.520    0.750      5.618e-004    0.427    2.727e+001    9.860e-001    
3.245    1.735    26.980      1.225         2.488     1.510    0.752      5.581e-004    0.432    2.642e+001    9.549e-001    
3.245    1.745    26.980      1.232         2.462     1.500    0.755      5.542e-004    0.438    2.817e+001    1.022e+000    
3.245    1.755    26.980      1.239         2.436     1.490    0.757      5.502e-004    0.443    2.805e+001    1.015e+000    
3.245    1.765    26.980      1.246         2.410     1.480    0.759      5.461e-004    0.449    2.858e+001    1.024e+000    
3.245    1.775    26.980      1.253         2.384     1.470    0.761      5.418e-004    0.454    2.863e+001    9.547e-001    
3.245    1.785    26.980      1.260         2.359     1.460    0.763      5.378e-004    0.460    3.003e+001    1.002e+000    
3.245    1.795    26.980      1.267         2.333     1.450    0.766      5.332e-004    0.466    3.159e+001    1.056e+000    
3.245    1.805    26.980      1.274         2.307     1.440    0.768      5.286e-004    0.471    3.366e+001    1.181e+000    
3.245    1.815    26.980      1.282         2.281     1.430    0.770      5.235e-004    0.478    3.490e+001    1.227e+000    
3.245    1.825    26.980      1.289         2.255     1.420    0.772      5.186e-004    0.484    3.705e+001    1.307e+000    
3.245    1.835    26.980      1.296         2.230     1.410    0.774      5.139e-004    0.490    3.683e+001    1.298e+000    
3.245    1.845    26.980      1.303         2.204     1.400    0.776      5.087e-004    0.496    3.374e+001    1.192e+000    
3.245    1.855    26.980      1.310         2.178     1.390    0.778      5.033e-004    0.502    3.197e+001    1.132e+000    
3.245    1.865    26.980      1.317         2.152     1.380    0.780      4.977e-004    0.509    2.814e+001    9.996e-001    
3.245    1.875    26.980      1.324         2.126     1.370    0.782      4.921e-004    0.515    2.450e+001    8.721e-001    
3.245    1.885    26.980      1.331         2.100     1.360    0.784      4.862e-004    0.522    2.298e+001    8.229e-001    
3.245    1.895    26.980      1.338         2.075     1.350    0.786      4.806e-004    0.528    2.200e+001    7.877e-001    
3.245    1.905    26.980      1.345         2.049     1.340    0.788      4.745e-004    0.535    2.029e+001    7.313e-001    
3.245    1.915    26.980      1.352         2.023     1.330    0.790      4.682e-004    0.542    1.937e+001    6.988e-001    
3.245    1.925    26.980      1.359         1.997     1.320    0.792      4.617e-004    0.549    1.870e+001    6.771e-001    
3.245    1.935    26.980      1.366         1.971     1.310    0.794      4.550e-004    0.556    1.818e+001    6.566e-001    
3.245    1.945    26.980      1.373         1.945     1.300    0.796      4.482e-004    0.563    1.683e+001    6.107e-001    
3.245    1.955    26.980      1.380         1.920     1.290    0.798      4.417e-004    0.570    1.755e+001    6.393e-001    
3.245    1.965    26.980      1.387         1.894     1.280    0.799      4.345e-004    0.577    1.673e+001    6.104e-001    
3.245    1.975    26.980      1.395         1.868     1.270    0.801      4.270e-004    0.585    1.622e+001    5.921e-001    
3.245    1.985    26.980      1.402         1.842     1.260    0.803      4.195e-004    0.593    1.569e+001    5.743e-001    
3.245    1.995    26.980      1.409         1.816     1.250    0.805      4.118e-004    0.601    1.601e+001    5.845e-001    
3.245    2.005    26.980      1.416         1.791     1.240    0.806      4.044e-004    0.609    1.636e+001    6.010e-001    
3.245    2.015    26.980      1.423         1.765     1.230    0.808      3.964e-004    0.616    1.598e+001    5.849e-001    
3.245    2.025    26.980      1.430         1.739     1.220    0.810      3.881e-004    0.625    1.576e+001    5.522e-001    
3.245    2.035    26.980      1.437         1.713     1.210    0.811      3.797e-004    0.633    1.581e+001    5.342e-001    
3.245    2.045    26.980      1.444         1.687     1.200    0.813      3.711e-004    0.641    1.589e+001    5.378e-001    
3.245    2.055    26.980      1.451         1.661     1.190    0.815      3.623e-004    0.650    1.643e+001    5.560e-001    
3.245    2.065    26.980      1.458         1.636     1.180    0.816      3.538e-004    0.658    1.694e+001    5.735e-001    
3.245    2.085    26.980      1.472         1.584     1.160    0.819      3.352e-004    0.676    1.884e+001    6.799e-001    
3.245    2.095    26.980      1.479         1.558     1.150    0.821      3.256e-004    0.685    2.083e+001    7.532e-001    
3.245    2.105    26.980      1.486         1.532     1.140    0.823      3.158e-004    0.695    2.253e+001    8.145e-001    
3.245    2.115    26.980      1.493         1.507     1.130    0.824      3.063e-004    0.704    2.545e+001    9.186e-001    
3.245    2.125    26.980      1.500         1.481     1.120    0.826      2.961e-004    0.714    2.574e+001    9.361e-001    
3.245    2.135    26.980      1.507         1.455     1.110    0.827      2.857e-004    0.723    2.360e+001    8.608e-001    
3.245    2.145    26.980      1.515         1.429     1.100    0.828      2.750e-004    0.734    1.989e+001    7.281e-001    
3.245    2.155    26.980      1.522         1.403     1.090    0.830      2.642e-004    0.744    1.586e+001    5.831e-001    
3.245    2.165    26.980      1.529         1.377     1.080    0.831      2.531e-004    0.754    1.100e+001    6.559e-001    
3.245    2.175    26.980      1.536         1.352     1.070    0.833      2.424e-004    0.765    7.142e+000    4.281e-001    
3.245    2.185    26.980      1.543         1.326     1.060    0.834      2.309e-004    0.776    4.272e+000    2.572e-001    
3.245    2.195    26.980      1.550         1.300     1.050    0.835      2.193e-004    0.787    2.735e+000    1.660e-001    
3.245    2.205    26.980      1.557         1.274     1.040    0.837      2.074e-004    0.798    1.430e+000    8.774e-002    
3.245    2.215    26.980      1.564         1.248     1.030    0.838      1.953e-004    0.809    6.900e-001    4.281e-002    
3.245    2.225    26.980      1.571         1.222     1.020    0.839      1.829e-004    0.821    3.029e-001    1.915e-002    
3.245    2.235    26.980      1.578         1.197     1.010    0.841      1.709e-004    0.833    1.031e-001    6.693e-003    
3.245    2.245    26.980      1.585         1.171     1.000    0.842      1.581e-004    0.845    1.719e-002    1.148e-003    
2.445    0.945    38.500      1.004         2.690     1.500    0.559      3.109e-004    0.357    1.814e+001    7.143e-001    
2.445    0.955    38.500      1.015         2.660     1.490    0.563      3.085e-004    0.363    1.664e+001    5.647e-001    
2.445    0.965    38.500      1.025         2.631     1.480    0.567      3.064e-004    0.369    1.585e+001    5.392e-001    
2.445    0.975    38.500      1.036         2.602     1.470    0.571      3.041e-004    0.376    1.577e+001    5.372e-001    
2.445    0.985    38.500      1.047         2.572     1.460    0.575      3.015e-004    0.382    1.510e+001    5.144e-001    
2.445    0.995    38.500      1.057         2.543     1.450    0.578      2.991e-004    0.388    1.505e+001    5.132e-001    
2.445    1.005    38.500      1.068         2.513     1.440    0.582      2.964e-004    0.395    1.536e+001    5.236e-001    
2.445    1.015    38.500      1.079         2.484     1.430    0.586      2.937e-004    0.402    1.486e+001    5.074e-001    
2.445    1.025    38.500      1.089         2.455     1.420    0.590      2.912e-004    0.409    1.545e+001    5.270e-001    
2.445    1.035    38.500      1.100         2.425     1.410    0.594      2.882e-004    0.416    1.583e+001    5.390e-001    
2.445    1.055    38.500      1.121         2.367     1.390    0.601      2.825e-004    0.430    1.697e+001    5.518e-001    
2.445    1.065    38.500      1.132         2.337     1.380    0.605      2.793e-004    0.437    1.748e+001    5.685e-001    
2.445    1.075    38.500      1.142         2.308     1.370    0.608      2.763e-004    0.444    1.884e+001    6.132e-001    
2.445    1.085    38.500      1.153         2.278     1.360    0.612      2.729e-004    0.452    1.917e+001    6.153e-001    
2.445    1.095    38.500      1.164         2.249     1.350    0.615      2.696e-004    0.459    1.982e+001    6.353e-001    
2.445    1.105    38.500      1.174         2.220     1.340    0.618      2.663e-004    0.467    1.854e+001    5.949e-001    
2.445    1.125    38.500      1.195         2.161     1.320    0.625      2.592e-004    0.482    1.406e+001    4.580e-001    
2.445    1.135    38.500      1.206         2.131     1.310    0.629      2.554e-004    0.491    1.288e+001    4.200e-001    
2.445    1.145    38.500      1.217         2.102     1.300    0.632      2.516e-004    0.499    1.127e+001    3.679e-001    
2.445    1.155    38.500      1.227         2.073     1.290    0.635      2.479e-004    0.507    1.032e+001    3.375e-001    
2.445    1.175    38.500      1.249         2.014     1.270    0.641      2.397e-004    0.524    9.624e+000    3.098e-001    
2.445    1.185    38.500      1.259         1.985     1.260    0.645      2.357e-004    0.532    9.105e+000    2.935e-001    
2.445    1.195    38.500      1.270         1.955     1.250    0.648      2.313e-004    0.541    9.004e+000    2.904e-001    
2.445    1.205    38.500      1.281         1.926     1.240    0.651      2.270e-004    0.550    8.660e+000    2.795e-001    
2.445    1.215    38.500      1.291         1.896     1.230    0.654      2.224e-004    0.559    8.333e+000    2.693e-001    
2.445    1.225    38.500      1.302         1.867     1.220    0.657      2.179e-004    0.569    8.252e+000    2.670e-001    
2.445    1.245    38.500      1.323         1.808     1.200    0.663      2.085e-004    0.587    7.856e+000    2.598e-001    
2.445    1.255    38.500      1.334         1.779     1.190    0.665      2.036e-004    0.597    7.890e+000    2.615e-001    
2.445    1.265    38.500      1.344         1.749     1.180    0.668      1.986e-004    0.607    8.086e+000    2.684e-001    
2.445    1.275    38.500      1.355         1.720     1.170    0.671      1.935e-004    0.617    8.083e+000    2.808e-001    
2.445    1.285    38.500      1.366         1.691     1.160    0.674      1.884e-004    0.628    8.265e+000    2.868e-001    
2.445    1.295    38.500      1.376         1.661     1.150    0.676      1.830e-004    0.638    8.826e+000    3.063e-001    
2.445    1.305    38.500      1.387         1.632     1.140    0.679      1.776e-004    0.648    9.149e+000    3.174e-001    
2.445    1.315    38.500      1.397         1.602     1.130    0.682      1.720e-004    0.659    9.810e+000    3.377e-001    
2.445    1.325    38.500      1.408         1.573     1.120    0.684      1.664e-004    0.670    1.072e+001    3.581e-001    
2.445    1.335    38.500      1.419         1.544     1.110    0.687      1.607e-004    0.681    1.118e+001    3.738e-001    
2.445    1.345    38.500      1.429         1.514     1.100    0.689      1.548e-004    0.692    1.221e+001    4.090e-001    
2.445    1.355    38.500      1.440         1.485     1.090    0.692      1.489e-004    0.704    1.221e+001    4.106e-001    
2.445    1.365    38.500      1.451         1.456     1.080    0.694      1.428e-004    0.716    1.214e+001    4.097e-001    
2.445    1.385    38.500      1.472         1.397     1.060    0.699      1.303e-004    0.740    7.327e+000    4.424e-001    
2.445    1.395    38.500      1.482         1.367     1.050    0.702      1.237e-004    0.752    4.776e+000    2.903e-001    
2.445    1.405    38.500      1.493         1.338     1.040    0.704      1.172e-004    0.765    2.861e+000    1.758e-001    
2.445    1.415    38.500      1.504         1.309     1.030    0.706      1.106e-004    0.778    1.612e+000    1.004e-001    
2.445    1.425    38.500      1.514         1.279     1.020    0.708      1.037e-004    0.791    9.068e-001    5.740e-002    
2.445    1.435    38.500      1.525         1.250     1.010    0.711      9.689e-005    0.805    3.541e-001    2.311e-002    
2.445    1.455    38.500      1.546         1.191     0.990    0.715      8.267e-005    0.832    3.113e-002    1.925e-003    
2.445    1.465    38.500      1.557         1.162     0.980    0.717      7.550e-005    0.847    3.942e-004    2.502e-005    
4.054    1.745    24.030      1.226         3.986     2.309    0.674      6.583e-004    0.283    2.905e+001    1.039e+000    
4.054    1.755    24.030      1.233         3.960     2.299    0.676      6.579e-004    0.286    2.844e+001    1.020e+000    
4.054    1.765    24.030      1.240         3.934     2.289    0.679      6.575e-004    0.289    2.874e+001    1.032e+000    
4.054    1.775    24.030      1.247         3.909     2.279    0.681      6.574e-004    0.292    2.810e+001    1.011e+000    
4.054    1.785    24.030      1.254         3.883     2.269    0.684      6.569e-004    0.295    2.855e+001    1.028e+000    
4.054    1.795    24.030      1.261         3.857     2.259    0.686      6.564e-004    0.297    2.710e+001    9.743e-001    
4.054    1.805    24.030      1.268         3.831     2.249    0.689      6.559e-004    0.300    2.786e+001    1.001e+000    
4.054    1.815    24.030      1.275         3.805     2.239    0.691      6.553e-004    0.303    2.941e+001    1.059e+000    
4.054    1.825    24.030      1.282         3.780     2.229    0.694      6.549e-004    0.306    2.869e+001    1.031e+000    
4.054    1.835    24.030      1.289         3.754     2.219    0.696      6.542e-004    0.310    2.907e+001    1.045e+000    
4.054    1.845    24.030      1.296         3.728     2.209    0.698      6.535e-004    0.313    2.806e+001    1.010e+000    
4.054    1.855    24.030      1.303         3.702     2.199    0.701      6.527e-004    0.316    2.781e+001    1.002e+000    
4.054    1.865    24.030      1.310         3.677     2.189    0.703      6.521e-004    0.319    2.888e+001    1.038e+000    
4.054    1.875    24.030      1.317         3.651     2.179    0.706      6.513e-004    0.322    2.890e+001    1.040e+000    
4.054    1.885    24.030      1.324         3.625     2.169    0.708      6.504e-004    0.325    2.731e+001    9.833e-001    
4.054    1.895    24.030      1.331         3.599     2.159    0.710      6.494e-004    0.329    2.803e+001    1.009e+000    
4.054    1.905    24.030      1.338         3.573     2.149    0.713      6.484e-004    0.332    2.850e+001    1.026e+000    
4.054    1.915    24.030      1.345         3.548     2.139    0.715      6.476e-004    0.335    2.819e+001    1.018e+000    
4.054    1.925    24.030      1.352         3.522     2.129    0.717      6.464e-004    0.338    2.773e+001    1.002e+000    
4.054    1.935    24.030      1.359         3.496     2.119    0.719      6.453e-004    0.342    2.700e+001    9.769e-001    
4.054    1.945    24.030      1.366         3.470     2.109    0.722      6.440e-004    0.345    2.687e+001    9.722e-001    
4.054    1.955    24.030      1.373         3.444     2.099    0.724      6.428e-004    0.349    2.694e+001    9.760e-001    
4.054    1.975    24.030      1.387         3.393     2.079    0.728      6.402e-004    0.356    2.650e+001    8.951e-001    
4.054    1.985    24.030      1.394         3.367     2.069    0.731      6.388e-004    0.359    2.583e+001    8.734e-001    
4.054    1.995    24.030      1.401         3.341     2.059    0.733      6.373e-004    0.363    2.613e+001    8.841e-001    
4.054    2.005    24.030      1.408         3.316     2.049    0.735      6.359e-004    0.366    2.539e+001    8.594e-001    
4.054    2.015    24.030      1.415         3.290     2.039    0.737      6.343e-004    0.370    2.549e+001    8.642e-001    
4.054    2.025    24.030      1.422         3.264     2.029    0.739      6.325e-004    0.373    2.538e+001    8.600e-001    
4.054    2.045    24.030      1.436         3.212     2.009    0.743      6.289e-004    0.381    2.387e+001    8.717e-001    
4.054    2.055    24.030      1.444         3.187     1.999    0.746      6.271e-004    0.385    2.453e+001    8.955e-001    
4.054    2.065    24.030      1.451         3.161     1.989    0.748      6.251e-004    0.389    2.494e+001    9.141e-001    
4.054    2.075    24.030      1.458         3.135     1.979    0.750      6.230e-004    0.393    2.483e+001    9.089e-001    
4.054    2.085    24.030      1.465         3.109     1.969    0.752      6.209e-004    0.396    2.589e+001    9.440e-001    
4.054    2.095    24.030      1.472         3.083     1.959    0.754      6.187e-004    0.400    2.529e+001    9.244e-001    
4.054    2.105    24.030      1.479         3.058     1.949    0.756      6.166e-004    0.404    2.478e+001    9.053e-001    
4.054    2.115    24.030      1.486         3.032     1.939    0.758      6.143e-004    0.408    2.681e+001    9.776e-001    
4.054    2.125    24.030      1.493         3.006     1.929    0.760      6.118e-004    0.412    2.662e+001    9.711e-001    
4.054    2.135    24.030      1.500         2.980     1.919    0.762      6.093e-004    0.417    2.715e+001    9.929e-001    
4.054    2.145    24.030      1.507         2.955     1.909    0.764      6.070e-004    0.421    2.787e+001    1.017e+000    
4.054    2.155    24.030      1.514         2.929     1.899    0.765      6.043e-004    0.425    2.882e+001    1.054e+000    
4.054    2.165    24.030      1.521         2.903     1.889    0.767      6.016e-004    0.429    3.002e+001    1.098e+000    
4.054    2.175    24.030      1.528         2.877     1.879    0.769      5.987e-004    0.433    3.014e+001    1.104e+000    
4.054    2.185    24.030      1.535         2.851     1.869    0.771      5.958e-004    0.438    3.091e+001    1.133e+000    
4.054    2.195    24.030      1.542         2.826     1.859    0.773      5.931e-004    0.442    2.942e+001    1.078e+000    
4.054    2.205    24.030      1.549         2.800     1.849    0.775      5.900e-004    0.446    2.837e+001    1.043e+000    
4.054    2.215    24.030      1.556         2.774     1.839    0.777      5.868e-004    0.451    2.554e+001    9.417e-001    
4.054    2.225    24.030      1.563         2.748     1.829    0.779      5.835e-004    0.455    2.455e+001    9.057e-001    
4.054    2.235    24.030      1.570         2.722     1.819    0.780      5.801e-004    0.460    2.348e+001    8.662e-001    
4.054    2.245    24.030      1.577         2.697     1.809    0.782      5.769e-004    0.465    2.266e+001    7.977e-001    
4.054    2.255    24.030      1.584         2.671     1.799    0.784      5.733e-004    0.469    2.160e+001    7.273e-001    
4.054    2.265    24.030      1.591         2.645     1.789    0.786      5.697e-004    0.474    2.079e+001    7.015e-001    
4.054    2.275    24.030      1.598         2.619     1.779    0.787      5.659e-004    0.479    2.021e+001    6.828e-001    
4.054    2.285    24.030      1.605         2.594     1.769    0.789      5.623e-004    0.483    1.932e+001    6.532e-001    
4.054    2.295    24.030      1.612         2.568     1.759    0.791      5.583e-004    0.488    1.973e+001    6.679e-001    
4.054    2.305    24.030      1.619         2.542     1.749    0.793      5.543e-004    0.493    1.905e+001    6.455e-001    
4.054    2.325    24.030      1.633         2.490     1.729    0.796      5.458e-004    0.503    1.856e+001    6.638e-001    
4.054    2.335    24.030      1.640         2.465     1.719    0.798      5.417e-004    0.508    1.837e+001    6.557e-001    
4.054    2.345    24.030      1.647         2.439     1.709    0.799      5.372e-004    0.514    1.816e+001    6.483e-001    
4.054    2.355    24.030      1.654         2.413     1.699    0.801      5.325e-004    0.519    1.947e+001    6.970e-001    
4.054    2.365    24.030      1.661         2.387     1.689    0.802      5.278e-004    0.524    1.925e+001    6.893e-001    
4.054    2.375    24.030      1.668         2.362     1.679    0.804      5.233e-004    0.529    2.007e+001    7.181e-001    
4.054    2.385    24.030      1.675         2.336     1.669    0.806      5.183e-004    0.535    2.017e+001    7.204e-001    
4.054    2.395    24.030      1.682         2.310     1.659    0.807      5.132e-004    0.540    2.138e+001    7.661e-001    
4.054    2.405    24.030      1.689         2.284     1.649    0.809      5.080e-004    0.546    2.339e+001    8.383e-001    
4.054    2.415    24.030      1.696         2.258     1.639    0.810      5.027e-004    0.551    2.462e+001    8.849e-001    
4.054    2.425    24.030      1.703         2.233     1.629    0.812      4.976e-004    0.557    2.582e+001    9.278e-001    
4.054    2.435    24.030      1.710         2.207     1.619    0.813      4.920e-004    0.563    2.519e+001    9.081e-001    
4.054    2.445    24.030      1.717         2.181     1.609    0.815      4.863e-004    0.569    2.269e+001    8.186e-001    
4.054    2.455    24.030      1.724         2.155     1.599    0.816      4.804e-004    0.575    2.131e+001    7.696e-001    
4.054    2.465    24.030      1.732         2.129     1.589    0.818      4.743e-004    0.581    1.925e+001    6.978e-001    
4.054    2.475    24.030      1.739         2.104     1.579    0.819      4.686e-004    0.587    1.687e+001    6.129e-001    
4.054    2.485    24.030      1.746         2.078     1.569    0.821      4.623e-004    0.593    1.583e+001    5.791e-001    
4.054    2.495    24.030      1.753         2.052     1.559    0.822      4.559e-004    0.599    1.460e+001    5.366e-001    
4.054    2.505    24.030      1.760         2.026     1.549    0.824      4.494e-004    0.605    1.317e+001    4.863e-001    
4.054    2.515    24.030      1.767         2.001     1.539    0.825      4.432e-004    0.612    1.306e+001    4.842e-001    
4.054    2.525    24.030      1.774         1.975     1.529    0.826      4.364e-004    0.618    1.249e+001    4.635e-001    
4.054    2.535    24.030      1.781         1.949     1.519    0.828      4.294e-004    0.625    1.221e+001    4.543e-001    
4.054    2.545    24.030      1.788         1.923     1.509    0.829      4.223e-004    0.631    1.165e+001    4.356e-001    
4.054    2.565    24.030      1.802         1.872     1.489    0.832      4.081e-004    0.645    1.155e+001    3.984e-001    
4.054    2.575    24.030      1.809         1.846     1.479    0.833      4.006e-004    0.652    1.088e+001    3.757e-001    
4.054    2.585    24.030      1.816         1.820     1.469    0.835      3.929e-004    0.659    1.056e+001    3.654e-001    
4.054    2.595    24.030      1.823         1.794     1.459    0.836      3.851e-004    0.666    1.074e+001    3.722e-001    
4.054    2.605    24.030      1.830         1.768     1.449    0.837      3.771e-004    0.673    9.936e+000    3.447e-001    
4.054    2.615    24.030      1.837         1.743     1.439    0.838      3.694e-004    0.680    9.982e+000    3.466e-001    
4.054    2.625    24.030      1.844         1.717     1.429    0.840      3.611e-004    0.688    9.790e+000    3.401e-001    
4.054    2.635    24.030      1.851         1.691     1.419    0.841      3.526e-004    0.695    9.847e+000    3.500e-001    
4.054    2.645    24.030      1.858         1.665     1.409    0.842      3.440e-004    0.703    9.907e+000    3.731e-001    
4.054    2.655    24.030      1.865         1.640     1.399    0.843      3.357e-004    0.710    9.655e+000    3.624e-001    
4.054    2.665    24.030      1.872         1.614     1.389    0.845      3.267e-004    0.718    1.078e+001    4.052e-001    
4.054    2.675    24.030      1.879         1.588     1.379    0.846      3.176e-004    0.726    1.141e+001    4.292e-001    
4.054    2.685    24.030      1.886         1.562     1.369    0.847      3.083e-004    0.734    1.314e+001    4.969e-001    
4.054    2.695    24.030      1.893         1.536     1.359    0.848      2.988e-004    0.742    1.401e+001    5.303e-001    
4.054    2.705    24.030      1.900         1.511     1.349    0.849      2.897e-004    0.751    1.546e+001    5.861e-001    
4.054    2.715    24.030      1.907         1.485     1.339    0.851      2.799e-004    0.759    1.490e+001    5.650e-001    
4.054    2.725    24.030      1.914         1.459     1.329    0.852      2.699e-004    0.767    1.443e+001    5.508e-001    
4.054    2.735    24.030      1.921         1.433     1.319    0.853      2.597e-004    0.776    1.216e+001    4.673e-001    
4.054    2.745    24.030      1.928         1.407     1.309    0.854      2.494e-004    0.785    9.155e+000    3.529e-001    
4.054    2.755    24.030      1.935         1.382     1.299    0.855      2.394e-004    0.794    6.903e+000    4.193e-001    
4.054    2.765    24.030      1.942         1.356     1.289    0.856      2.287e-004    0.803    4.803e+000    2.926e-001    
4.054    2.775    24.030      1.949         1.330     1.279    0.857      2.178e-004    0.812    2.897e+000    1.778e-001    
4.054    2.785    24.030      1.956         1.304     1.269    0.858      2.068e-004    0.821    1.832e+000    1.129e-001    
4.054    2.795    24.030      1.963         1.279     1.259    0.859      1.961e-004    0.831    1.038e+000    6.476e-002    
4.054    2.805    24.030      1.970         1.253     1.249    0.860      1.846e-004    0.840    6.108e-001    3.840e-002    
4.054    2.815    24.030      1.977         1.227     1.239    0.861      1.730e-004    0.850    2.981e-001    1.903e-002    
4.054    2.825    24.030      1.984         1.201     1.229    0.862      1.612e-004    0.860    1.192e-001    7.754e-003    
4.054    2.835    24.030      1.991         1.175     1.219    0.863      1.493e-004    0.870    3.076e-002    2.040e-003    
2.445    0.505    70.010      1.625         2.895     1.940    0.235      6.597e-005    0.446    2.670e+000    1.025e-001    
2.445    0.515    70.010      1.657         2.844     1.930    0.239      6.462e-005    0.458    2.420e+000    8.301e-002    
2.445    0.525    70.010      1.689         2.793     1.920    0.243      6.326e-005    0.469    2.164e+000    7.463e-002    
2.445    0.535    70.010      1.721         2.742     1.910    0.246      6.188e-005    0.480    1.982e+000    6.869e-002    
2.445    0.545    70.010      1.753         2.691     1.900    0.250      6.048e-005    0.492    1.820e+000    6.337e-002    
2.445    0.555    70.010      1.786         2.640     1.890    0.254      5.904e-005    0.504    1.615e+000    5.673e-002    
2.445    0.565    70.010      1.818         2.589     1.880    0.257      5.761e-005    0.515    1.536e+000    5.426e-002    
2.445    0.575    70.010      1.850         2.538     1.870    0.261      5.617e-005    0.527    1.461e+000    5.183e-002    
2.445    0.585    70.010      1.882         2.487     1.860    0.264      5.470e-005    0.539    1.451e+000    4.957e-002    
2.445    0.595    70.010      1.914         2.436     1.850    0.268      5.322e-005    0.551    1.486e+000    5.119e-002    
2.445    0.605    70.010      1.946         2.385     1.840    0.271      5.173e-005    0.564    1.462e+000    5.108e-002    
2.445    0.615    70.010      1.979         2.334     1.830    0.275      5.019e-005    0.576    1.471e+000    5.156e-002    
2.445    0.625    70.010      2.011         2.284     1.820    0.278      4.870e-005    0.589    1.597e+000    5.598e-002    
2.445    0.635    70.010      2.043         2.233     1.810    0.281      4.715e-005    0.601    1.636e+000    5.769e-002    
2.445    0.645    70.010      2.075         2.182     1.800    0.285      4.558e-005    0.614    1.461e+000    5.214e-002    
2.445    0.655    70.010      2.107         2.131     1.790    0.288      4.400e-005    0.627    1.163e+000    4.230e-002    
2.445    0.665    70.010      2.139         2.080     1.780    0.291      4.241e-005    0.640    9.476e-001    3.508e-002    
2.445    0.675    70.010      2.172         2.029     1.770    0.294      4.078e-005    0.654    8.324e-001    2.784e-002    
2.445    0.685    70.010      2.204         1.978     1.760    0.298      3.914e-005    0.667    7.443e-001    2.503e-002    
2.445    0.695    70.010      2.236         1.927     1.750    0.301      3.750e-005    0.681    6.667e-001    2.290e-002    
2.445    0.705    70.010      2.268         1.876     1.740    0.304      3.583e-005    0.695    6.257e-001    2.158e-002    
2.445    0.725    70.010      2.333         1.774     1.720    0.310      3.244e-005    0.723    5.552e-001    1.835e-002    
2.445    0.735    70.010      2.365         1.723     1.710    0.313      3.072e-005    0.737    5.194e-001    1.722e-002    
2.445    0.745    70.010      2.397         1.672     1.700    0.316      2.899e-005    0.751    5.016e-001    1.666e-002    
2.445    0.755    70.010      2.429         1.621     1.690    0.319      2.724e-005    0.766    5.198e-001    1.728e-002    
2.445    0.765    70.010      2.461         1.570     1.680    0.322      2.548e-005    0.781    5.459e-001    1.815e-002    
2.445    0.775    70.010      2.493         1.520     1.670    0.325      2.373e-005    0.795    5.886e-001    1.935e-002    
2.445    0.785    70.010      2.526         1.469     1.660    0.328      2.193e-005    0.811    5.835e-001    1.921e-002    
2.445    0.795    70.010      2.558         1.418     1.650    0.331      2.012e-005    0.826    4.609e-001    1.579e-002    
2.445    0.805    70.010      2.590         1.367     1.640    0.333      1.828e-005    0.842    3.083e-001    1.797e-002    
2.445    0.815    70.010      2.622         1.316     1.630    0.336      1.644e-005    0.857    1.397e-001    8.260e-003    
2.445    0.825    70.010      2.654         1.265     1.620    0.339      1.457e-005    0.873    5.036e-002    3.044e-003    
2.445    0.845    70.010      2.719         1.163     1.600    0.344      1.079e-005    0.906    6.908e-005    5.808e-006    
4.054    1.515    30.000      1.645         3.998     2.539    0.586      3.371e-004    0.345    1.133e+001    4.021e-001    
4.054    1.525    30.000      1.656         3.968     2.529    0.589      3.362e-004    0.349    1.135e+001    4.028e-001    
4.054    1.535    30.000      1.667         3.939     2.519    0.592      3.352e-004    0.353    1.115e+001    3.962e-001    
4.054    1.545    30.000      1.678         3.909     2.509    0.594      3.342e-004    0.356    1.134e+001    4.031e-001    
4.054    1.555    30.000      1.689         3.880     2.499    0.597      3.332e-004    0.360    1.135e+001    4.024e-001    
4.054    1.565    30.000      1.699         3.850     2.489    0.600      3.322e-004    0.364    1.105e+001    3.933e-001    
4.054    1.575    30.000      1.710         3.820     2.479    0.603      3.311e-004    0.368    1.082e+001    3.857e-001    
4.054    1.585    30.000      1.721         3.791     2.469    0.605      3.301e-004    0.371    1.090e+001    3.881e-001    
4.054    1.595    30.000      1.732         3.761     2.459    0.608      3.289e-004    0.375    1.068e+001    3.597e-001    
4.054    1.605    30.000      1.743         3.732     2.449    0.611      3.278e-004    0.379    1.045e+001    3.493e-001    
4.054    1.615    30.000      1.754         3.702     2.439    0.613      3.265e-004    0.383    1.024e+001    3.431e-001    
4.054    1.625    30.000      1.765         3.672     2.429    0.616      3.253e-004    0.387    1.036e+001    3.470e-001    
4.054    1.635    30.000      1.775         3.643     2.419    0.618      3.242e-004    0.391    1.009e+001    3.384e-001    
4.054    1.645    30.000      1.786         3.613     2.409    0.621      3.228e-004    0.395    9.939e+000    3.337e-001    
4.054    1.665    30.000      1.808         3.554     2.389    0.626      3.202e-004    0.403    8.833e+000    3.175e-001    
4.054    1.675    30.000      1.819         3.524     2.379    0.629      3.187e-004    0.407    8.994e+000    3.236e-001    
4.054    1.685    30.000      1.830         3.495     2.369    0.631      3.174e-004    0.412    8.886e+000    3.198e-001    
4.054    1.695    30.000      1.841         3.465     2.359    0.634      3.159e-004    0.416    8.919e+000    3.210e-001    
4.054    1.705    30.000      1.851         3.435     2.349    0.636      3.145e-004    0.420    8.930e+000    3.216e-001    
4.054    1.715    30.000      1.862         3.406     2.339    0.639      3.130e-004    0.424    8.715e+000    3.144e-001    
4.054    1.725    30.000      1.873         3.376     2.329    0.641      3.114e-004    0.429    8.479e+000    3.062e-001    
4.054    1.735    30.000      1.884         3.346     2.319    0.644      3.098e-004    0.433    8.828e+000    3.183e-001    
4.054    1.745    30.000      1.895         3.317     2.309    0.646      3.082e-004    0.437    8.459e+000    3.059e-001    
4.054    1.755    30.000      1.906         3.287     2.299    0.649      3.065e-004    0.442    8.072e+000    2.923e-001    
4.054    1.765    30.000      1.917         3.258     2.289    0.651      3.049e-004    0.446    7.943e+000    2.876e-001    
4.054    1.775    30.000      1.927         3.228     2.279    0.653      3.032e-004    0.451    8.181e+000    2.968e-001    
4.054    1.785    30.000      1.938         3.198     2.269    0.656      3.014e-004    0.455    7.763e+000    2.824e-001    
4.054    1.795    30.000      1.949         3.169     2.259    0.658      2.996e-004    0.460    8.000e+000    2.902e-001    
4.054    1.805    30.000      1.960         3.139     2.249    0.660      2.977e-004    0.464    8.099e+000    2.935e-001    
4.054    1.815    30.000      1.971         3.110     2.239    0.663      2.959e-004    0.469    7.917e+000    2.878e-001    
4.054    1.825    30.000      1.982         3.080     2.229    0.665      2.939e-004    0.474    8.275e+000    3.009e-001    
4.054    1.835    30.000      1.993         3.050     2.219    0.667      2.919e-004    0.479    8.299e+000    3.024e-001    
4.054    1.845    30.000      2.003         3.021     2.209    0.670      2.901e-004    0.483    8.460e+000    3.081e-001    
4.054    1.855    30.000      2.014         2.991     2.199    0.672      2.880e-004    0.488    8.260e+000    3.029e-001    
4.054    1.865    30.000      2.025         2.961     2.189    0.674      2.858e-004    0.493    8.889e+000    3.334e-001    
4.054    1.895    30.000      2.058         2.873     2.159    0.681      2.794e-004    0.508    9.810e+000    3.956e-001    
4.054    1.905    30.000      2.069         2.843     2.149    0.683      2.771e-004    0.513    8.965e+000    3.208e-001    
4.054    1.915    30.000      2.079         2.813     2.139    0.685      2.748e-004    0.518    8.316e+000    2.995e-001    
4.054    1.925    30.000      2.090         2.784     2.129    0.687      2.725e-004    0.523    7.667e+000    2.768e-001    
4.054    1.935    30.000      2.101         2.754     2.119    0.689      2.701e-004    0.528    7.192e+000    2.605e-001    
4.054    1.945    30.000      2.112         2.724     2.109    0.692      2.676e-004    0.534    6.786e+000    2.464e-001    
4.054    1.955    30.000      2.123         2.695     2.099    0.694      2.652e-004    0.539    6.208e+000    2.264e-001    
4.054    1.965    30.000      2.134         2.665     2.089    0.696      2.626e-004    0.544    6.126e+000    2.236e-001    
4.054    1.975    30.000      2.145         2.636     2.079    0.698      2.601e-004    0.550    5.784e+000    2.108e-001    
4.054    1.985    30.000      2.155         2.606     2.069    0.700      2.574e-004    0.555    5.889e+000    2.151e-001    
4.054    1.995    30.000      2.166         2.576     2.059    0.702      2.547e-004    0.561    5.902e+000    2.163e-001    
4.054    2.005    30.000      2.177         2.547     2.049    0.704      2.520e-004    0.566    5.467e+000    2.011e-001    
4.054    2.015    30.000      2.188         2.517     2.039    0.706      2.492e-004    0.572    5.672e+000    2.080e-001    
4.054    2.025    30.000      2.199         2.488     2.029    0.708      2.464e-004    0.578    5.460e+000    2.012e-001    
4.054    2.035    30.000      2.210         2.458     2.019    0.710      2.435e-004    0.583    5.608e+000    2.058e-001    
4.054    2.045    30.000      2.221         2.428     2.009    0.712      2.405e-004    0.589    5.240e+000    1.928e-001    
4.054    2.055    30.000      2.231         2.399     1.999    0.714      2.376e-004    0.595    5.395e+000    1.986e-001    
4.054    2.065    30.000      2.242         2.369     1.989    0.716      2.345e-004    0.601    5.335e+000    1.969e-001    
4.054    2.075    30.000      2.253         2.339     1.979    0.718      2.314e-004    0.607    5.691e+000    2.097e-001    
4.054    2.085    30.000      2.264         2.310     1.969    0.720      2.283e-004    0.613    5.895e+000    2.177e-001    
4.054    2.095    30.000      2.275         2.280     1.959    0.722      2.250e-004    0.619    6.323e+000    2.332e-001    
4.054    2.105    30.000      2.286         2.251     1.949    0.723      2.218e-004    0.625    6.757e+000    2.499e-001    
4.054    2.115    30.000      2.297         2.221     1.939    0.725      2.185e-004    0.631    6.814e+000    2.535e-001    
4.054    2.125    30.000      2.307         2.191     1.929    0.727      2.151e-004    0.637    6.659e+000    2.483e-001    
4.054    2.135    30.000      2.318         2.162     1.919    0.729      2.117e-004    0.644    6.061e+000    2.270e-001    
4.054    2.145    30.000      2.329         2.132     1.909    0.731      2.082e-004    0.650    5.439e+000    2.041e-001    
4.054    2.155    30.000      2.340         2.102     1.899    0.733      2.045e-004    0.657    4.616e+000    1.746e-001    
4.054    2.165    30.000      2.351         2.073     1.889    0.734      2.010e-004    0.663    4.346e+000    1.650e-001    
4.054    2.175    30.000      2.362         2.043     1.879    0.736      1.973e-004    0.670    3.958e+000    1.375e-001    
4.054    2.185    30.000      2.373         2.014     1.869    0.738      1.937e-004    0.677    3.543e+000    1.220e-001    
4.054    2.195    30.000      2.383         1.984     1.859    0.740      1.898e-004    0.683    3.399e+000    1.175e-001    
4.054    2.205    30.000      2.394         1.954     1.849    0.741      1.859e-004    0.690    3.207e+000    1.112e-001    
4.054    2.215    30.000      2.405         1.925     1.839    0.743      1.821e-004    0.697    3.023e+000    1.052e-001    
4.054    2.225    30.000      2.416         1.895     1.829    0.745      1.781e-004    0.704    2.877e+000    1.028e-001    
4.054    2.235    30.000      2.427         1.866     1.819    0.747      1.741e-004    0.711    2.800e+000    1.038e-001    
4.054    2.245    30.000      2.438         1.836     1.809    0.748      1.699e-004    0.718    2.683e+000    9.983e-002    
4.054    2.255    30.000      2.449         1.806     1.799    0.750      1.657e-004    0.725    2.510e+000    9.330e-002    
4.054    2.265    30.000      2.459         1.777     1.789    0.752      1.616e-004    0.732    2.456e+000    8.727e-002    
4.054    2.275    30.000      2.470         1.747     1.779    0.753      1.572e-004    0.740    2.436e+000    8.551e-002    
4.054    2.285    30.000      2.481         1.717     1.769    0.755      1.528e-004    0.747    2.394e+000    8.429e-002    
4.054    2.295    30.000      2.492         1.688     1.759    0.756      1.485e-004    0.755    2.331e+000    8.233e-002    
4.054    2.305    30.000      2.503         1.658     1.749    0.758      1.439e-004    0.763    2.346e+000    8.295e-002    
4.054    2.315    30.000      2.514         1.629     1.739    0.760      1.394e-004    0.770    2.424e+000    8.574e-002    
4.054    2.325    30.000      2.525         1.599     1.729    0.761      1.347e-004    0.778    2.546e+000    9.044e-002    
4.054    2.335    30.000      2.535         1.569     1.719    0.763      1.300e-004    0.786    2.750e+000    9.787e-002    
4.054    2.345    30.000      2.546         1.540     1.709    0.764      1.253e-004    0.794    2.953e+000    1.053e-001    
4.054    2.355    30.000      2.557         1.510     1.699    0.766      1.204e-004    0.802    3.137e+000    1.107e-001    
4.054    2.365    30.000      2.568         1.480     1.689    0.767      1.154e-004    0.810    3.059e+000    1.018e-001    
4.054    2.375    30.000      2.579         1.451     1.679    0.769      1.105e-004    0.819    2.839e+000    9.474e-002    
4.054    2.385    30.000      2.590         1.421     1.669    0.770      1.054e-004    0.827    2.296e+000    7.691e-002    
4.054    2.395    30.000      2.601         1.392     1.659    0.772      1.004e-004    0.835    1.586e+000    9.114e-002    
4.054    2.405    30.000      2.612         1.362     1.649    0.773      9.509e-005    0.844    1.081e+000    6.220e-002    
4.054    2.415    30.000      2.622         1.332     1.639    0.775      8.976e-005    0.852    6.731e-001    3.879e-002    
4.054    2.425    30.000      2.633         1.303     1.629    0.776      8.453e-005    0.861    4.023e-001    2.324e-002    
4.054    2.435    30.000      2.644         1.273     1.619    0.778      7.903e-005    0.870    2.299e-001    1.332e-002    
4.054    2.445    30.000      2.655         1.244     1.609    0.779      7.366e-005    0.879    1.119e-001    6.502e-003    
4.054    2.455    30.000      2.666         1.214     1.599    0.780      6.801e-005    0.888    5.507e-002    3.211e-003    
4.054    2.465    30.000      2.677         1.184     1.589    0.782      6.229e-005    0.898    1.581e-002    9.291e-004    
4.054    1.195    39.990      2.265         3.979     2.859    0.450      1.446e-004    0.422    3.296e+000    1.164e-001    
4.054    1.205    39.990      2.284         3.941     2.849    0.453      1.436e-004    0.427    3.242e+000    1.079e-001    
4.054    1.215    39.990      2.303         3.903     2.839    0.456      1.426e-004    0.432    3.083e+000    1.029e-001    
4.054    1.225    39.990      2.322         3.865     2.829    0.459      1.415e-004    0.437    3.147e+000    1.050e-001    
4.054    1.235    39.990      2.341         3.828     2.819    0.462      1.405e-004    0.443    2.993e+000    1.001e-001    
4.054    1.245    39.990      2.360         3.790     2.809    0.465      1.395e-004    0.448    2.964e+000    9.920e-002    
4.054    1.265    39.990      2.398         3.715     2.789    0.471      1.374e-004    0.458    2.962e+000    1.052e-001    
4.054    1.275    39.990      2.417         3.677     2.779    0.474      1.363e-004    0.463    2.766e+000    9.847e-002    
4.054    1.285    39.990      2.435         3.639     2.769    0.477      1.352e-004    0.469    2.848e+000    1.014e-001    
4.054    1.295    39.990      2.454         3.601     2.759    0.479      1.340e-004    0.474    2.761e+000    9.842e-002    
4.054    1.305    39.990      2.473         3.564     2.749    0.482      1.329e-004    0.479    2.647e+000    9.486e-002    
4.054    1.315    39.990      2.492         3.526     2.739    0.485      1.318e-004    0.485    2.611e+000    9.363e-002    
4.054    1.325    39.990      2.511         3.488     2.729    0.488      1.306e-004    0.490    2.532e+000    9.084e-002    
4.054    1.335    39.990      2.530         3.451     2.719    0.491      1.294e-004    0.496    2.466e+000    8.881e-002    
4.054    1.345    39.990      2.549         3.413     2.709    0.493      1.282e-004    0.501    2.463e+000    8.429e-002    
4.054    1.355    39.990      2.568         3.375     2.699    0.496      1.270e-004    0.507    2.363e+000    7.914e-002    
4.054    1.365    39.990      2.587         3.337     2.689    0.499      1.257e-004    0.513    2.239e+000    7.524e-002    
4.054    1.375    39.990      2.606         3.300     2.679    0.501      1.245e-004    0.518    2.263e+000    7.601e-002    
4.054    1.385    39.990      2.625         3.262     2.669    0.504      1.232e-004    0.524    2.195e+000    7.388e-002    
4.054    1.395    39.990      2.644         3.224     2.659    0.507      1.219e-004    0.530    2.154e+000    7.255e-002    
4.054    1.405    39.990      2.663         3.187     2.649    0.510      1.206e-004    0.536    2.098e+000    7.350e-002    
4.054    1.415    39.990      2.682         3.149     2.639    0.512      1.193e-004    0.542    2.115e+000    7.559e-002    
4.054    1.425    39.990      2.701         3.111     2.629    0.515      1.179e-004    0.547    2.071e+000    7.402e-002    
4.054    1.435    39.990      2.720         3.073     2.619    0.517      1.165e-004    0.553    2.031e+000    7.275e-002    
4.054    1.445    39.990      2.739         3.036     2.609    0.520      1.152e-004    0.559    2.143e+000    7.673e-002    
4.054    1.455    39.990      2.758         2.998     2.599    0.523      1.138e-004    0.565    2.186e+000    7.837e-002    
4.054    1.465    39.990      2.777         2.960     2.589    0.525      1.123e-004    0.572    2.283e+000    8.195e-002    
4.054    1.475    39.990      2.796         2.923     2.579    0.528      1.109e-004    0.578    2.216e+000    7.979e-002    
4.054    1.485    39.990      2.815         2.885     2.569    0.530      1.094e-004    0.584    2.145e+000    7.741e-002    
4.054    1.495    39.990      2.833         2.847     2.559    0.533      1.080e-004    0.590    2.029e+000    7.337e-002    
4.054    1.505    39.990      2.852         2.809     2.549    0.535      1.065e-004    0.596    1.864e+000    6.761e-002    
4.054    1.515    39.990      2.871         2.772     2.539    0.538      1.050e-004    0.603    1.693e+000    6.173e-002    
4.054    1.535    39.990      2.909         2.696     2.519    0.543      1.018e-004    0.615    1.465e+000    4.940e-002    
4.054    1.545    39.990      2.928         2.659     2.509    0.545      1.003e-004    0.622    1.413e+000    4.783e-002    
4.054    1.555    39.990      2.947         2.621     2.499    0.548      9.869e-005    0.628    1.321e+000    4.481e-002    
4.054    1.565    39.990      2.966         2.583     2.489    0.550      9.705e-005    0.635    1.290e+000    4.385e-002    
4.054    1.575    39.990      2.985         2.545     2.479    0.552      9.540e-005    0.642    1.232e+000    4.246e-002    
4.054    1.585    39.990      3.004         2.508     2.469    0.555      9.378e-005    0.648    1.198e+000    4.319e-002    
4.054    1.595    39.990      3.023         2.470     2.459    0.557      9.208e-005    0.655    1.143e+000    4.121e-002    
4.054    1.605    39.990      3.042         2.432     2.449    0.560      9.036e-005    0.662    1.182e+000    4.280e-002    
4.054    1.615    39.990      3.061         2.395     2.439    0.562      8.868e-005    0.669    1.130e+000    4.092e-002    
4.054    1.625    39.990      3.080         2.357     2.429    0.564      8.691e-005    0.676    1.104e+000    4.001e-002    
4.054    1.635    39.990      3.099         2.319     2.419    0.567      8.513e-005    0.683    1.116e+000    4.063e-002    
4.054    1.645    39.990      3.118         2.281     2.409    0.569      8.332e-005    0.690    1.236e+000    4.496e-002    
4.054    1.655    39.990      3.137         2.244     2.399    0.571      8.155e-005    0.697    1.305e+000    4.762e-002    
4.054    1.665    39.990      3.156         2.206     2.389    0.574      7.970e-005    0.704    1.342e+000    4.931e-002    
4.054    1.675    39.990      3.175         2.168     2.379    0.576      7.783e-005    0.711    1.264e+000    4.661e-002    
4.054    1.685    39.990      3.194         2.131     2.369    0.578      7.599e-005    0.718    1.169e+000    4.324e-002    
4.054    1.695    39.990      3.213         2.093     2.359    0.580      7.407e-005    0.726    9.597e-001    3.575e-002    
4.054    1.705    39.990      3.232         2.055     2.349    0.582      7.213e-005    0.733    8.183e-001    3.076e-002    
4.054    1.715    39.990      3.250         2.017     2.339    0.585      7.018e-005    0.740    6.987e-001    2.658e-002    
4.054    1.735    39.990      3.288         1.942     2.319    0.589      6.624e-005    0.756    6.169e-001    2.081e-002    
4.054    1.745    39.990      3.307         1.904     2.309    0.591      6.421e-005    0.763    5.634e-001    1.908e-002    
4.054    1.755    39.990      3.326         1.867     2.299    0.593      6.221e-005    0.771    5.518e-001    1.874e-002    
4.054    1.765    39.990      3.345         1.829     2.289    0.595      6.013e-005    0.779    4.174e-001    1.424e-002    
4.054    1.775    39.990      3.364         1.791     2.279    0.597      5.802e-005    0.787    3.952e-001    1.352e-002    
4.054    1.785    39.990      3.383         1.754     2.269    0.600      5.596e-005    0.795    3.845e-001    1.319e-002    
4.054    1.805    39.990      3.421         1.678     2.249    0.604      5.162e-005    0.811    3.321e-001    1.184e-002    
4.054    1.815    39.990      3.440         1.640     2.239    0.606      4.942e-005    0.819    3.694e-001    1.312e-002    
4.054    1.825    39.990      3.459         1.603     2.229    0.608      4.725e-005    0.827    3.893e-001    1.379e-002    
4.054    1.835    39.990      3.478         1.565     2.219    0.610      4.500e-005    0.835    4.105e-001    1.457e-002    
4.054    1.845    39.990      3.497         1.527     2.209    0.612      4.272e-005    0.844    4.663e-001    1.659e-002    
4.054    1.855    39.990      3.516         1.490     2.199    0.614      4.049e-005    0.852    4.539e-001    1.630e-002    
4.054    1.865    39.990      3.535         1.452     2.189    0.616      3.816e-005    0.861    4.339e-001    1.569e-002    
4.054    1.875    39.990      3.554         1.414     2.179    0.618      3.580e-005    0.869    3.076e-001    1.134e-002    
4.054    1.885    39.990      3.573         1.376     2.169    0.620      3.342e-005    0.878    1.845e-001    1.108e-002    
4.054    1.895    39.990      3.592         1.339     2.159    0.622      3.109e-005    0.887    9.702e-002    5.914e-003    
4.054    1.905    39.990      3.611         1.301     2.149    0.624      2.866e-005    0.895    6.547e-002    4.055e-003    
4.054    1.915    39.990      3.630         1.263     2.139    0.626      2.620e-005    0.904    3.192e-002    2.012e-003    
4.054    1.925    39.990      3.648         1.226     2.129    0.627      2.379e-005    0.913    1.442e-002    9.305e-004    
4.054    1.935    39.990      3.667         1.188     2.119    0.629      2.128e-005    0.922    3.752e-003    2.518e-004    
4.045    0.985    47.990      2.635         3.986     3.060    0.357      8.789e-005    0.459    1.568e+000    5.849e-002    
4.045    0.995    47.990      2.661         3.940     3.050    0.360      8.701e-005    0.465    1.539e+000    5.763e-002    
4.045    1.005    47.990      2.688         3.895     3.040    0.362      8.613e-005    0.471    1.554e+000    5.864e-002    
4.045    1.015    47.990      2.715         3.849     3.030    0.365      8.520e-005    0.477    1.514e+000    5.745e-002    
4.045    1.025    47.990      2.742         3.804     3.020    0.368      8.429e-005    0.484    1.525e+000    5.799e-002    
4.045    1.035    47.990      2.768         3.758     3.010    0.371      8.337e-005    0.490    1.466e+000    5.478e-002    
4.045    1.045    47.990      2.795         3.713     3.000    0.374      8.244e-005    0.496    1.428e+000    5.090e-002    
4.045    1.055    47.990      2.822         3.667     2.990    0.377      8.148e-005    0.503    1.367e+000    4.852e-002    
4.045    1.065    47.990      2.849         3.622     2.980    0.380      8.053e-005    0.509    1.328e+000    4.700e-002    
4.045    1.075    47.990      2.875         3.576     2.970    0.383      7.956e-005    0.516    1.315e+000    4.656e-002    
4.045    1.085    47.990      2.902         3.531     2.960    0.386      7.859e-005    0.522    1.208e+000    4.286e-002    
4.045    1.095    47.990      2.929         3.485     2.950    0.389      7.758e-005    0.529    1.181e+000    4.179e-002    
4.045    1.105    47.990      2.956         3.440     2.940    0.391      7.659e-005    0.536    1.133e+000    4.025e-002    
4.045    1.115    47.990      2.982         3.394     2.930    0.394      7.557e-005    0.542    1.103e+000    4.147e-002    
4.045    1.125    47.990      3.009         3.349     2.920    0.397      7.456e-005    0.549    1.019e+000    3.836e-002    
4.045    1.135    47.990      3.036         3.303     2.910    0.400      7.350e-005    0.556    9.826e-001    3.695e-002    
4.045    1.145    47.990      3.063         3.258     2.900    0.403      7.247e-005    0.563    9.620e-001    3.626e-002    
4.045    1.155    47.990      3.089         3.212     2.890    0.405      7.141e-005    0.570    9.325e-001    3.504e-002    
4.045    1.165    47.990      3.116         3.167     2.880    0.408      7.035e-005    0.577    9.268e-001    3.498e-002    
4.045    1.175    47.990      3.143         3.121     2.870    0.411      6.925e-005    0.584    9.561e-001    3.597e-002    
4.045    1.185    47.990      3.170         3.076     2.860    0.413      6.816e-005    0.591    8.937e-001    3.371e-002    
4.045    1.195    47.990      3.196         3.030     2.850    0.416      6.705e-005    0.598    9.034e-001    3.428e-002    
4.045    1.205    47.990      3.223         2.985     2.840    0.419      6.595e-005    0.605    9.936e-001    3.757e-002    
4.045    1.215    47.990      3.250         2.939     2.830    0.421      6.480e-005    0.612    1.020e+000    3.876e-002    
4.045    1.225    47.990      3.277         2.894     2.820    0.424      6.367e-005    0.619    9.159e-001    3.520e-002    
4.045    1.235    47.990      3.303         2.848     2.810    0.427      6.251e-005    0.626    8.292e-001    3.203e-002    
4.045    1.245    47.990      3.330         2.803     2.800    0.429      6.136e-005    0.634    7.853e-001    3.060e-002    
4.045    1.255    47.990      3.357         2.757     2.790    0.432      6.016e-005    0.641    7.539e-001    2.940e-002    
4.045    1.265    47.990      3.384         2.712     2.780    0.435      5.899e-005    0.649    6.956e-001    2.730e-002    
4.045    1.275    47.990      3.410         2.666     2.770    0.437      5.778e-005    0.656    6.531e-001    2.602e-002    
4.045    1.295    47.990      3.464         2.575     2.750    0.442      5.533e-005    0.671    5.771e-001    1.971e-002    
4.045    1.305    47.990      3.491         2.530     2.740    0.445      5.410e-005    0.679    5.368e-001    1.831e-002    
4.045    1.315    47.990      3.517         2.484     2.730    0.447      5.284e-005    0.686    4.945e-001    1.689e-002    
4.045    1.325    47.990      3.544         2.439     2.720    0.450      5.159e-005    0.694    4.864e-001    1.658e-002    
4.045    1.335    47.990      3.571         2.393     2.710    0.452      5.029e-005    0.702    4.835e-001    1.646e-002    
4.045    1.345    47.990      3.598         2.348     2.700    0.455      4.901e-005    0.710    4.819e-001    1.645e-002    
4.045    1.355    47.990      3.624         2.302     2.690    0.457      4.770e-005    0.718    4.835e-001    1.649e-002    
4.045    1.365    47.990      3.651         2.257     2.680    0.460      4.639e-005    0.726    5.275e-001    1.796e-002    
4.045    1.375    47.990      3.678         2.211     2.670    0.462      4.504e-005    0.734    5.648e-001    1.932e-002    
4.045    1.385    47.990      3.705         2.166     2.660    0.464      4.372e-005    0.742    5.568e-001    1.933e-002    
4.045    1.395    47.990      3.731         2.120     2.650    0.467      4.235e-005    0.750    4.867e-001    1.691e-002    
4.045    1.405    47.990      3.758         2.075     2.640    0.469      4.099e-005    0.759    4.090e-001    1.423e-002    
4.045    1.415    47.990      3.785         2.029     2.630    0.472      3.959e-005    0.767    3.253e-001    1.135e-002    
4.045    1.425    47.990      3.811         1.984     2.620    0.474      3.821e-005    0.775    3.040e-001    1.061e-002    
4.045    1.435    47.990      3.838         1.938     2.610    0.476      3.678e-005    0.784    2.478e-001    8.713e-003    
4.045    1.445    47.990      3.865         1.893     2.600    0.479      3.537e-005    0.792    2.236e-001    7.883e-003    
4.045    1.455    47.990      3.892         1.847     2.590    0.481      3.391e-005    0.801    2.085e-001    7.375e-003    
4.045    1.465    47.990      3.918         1.802     2.580    0.483      3.248e-005    0.809    1.882e-001    6.724e-003    
4.045    1.475    47.990      3.945         1.756     2.570    0.486      3.100e-005    0.818    1.732e-001    6.187e-003    
4.045    1.485    47.990      3.972         1.711     2.560    0.488      2.953e-005    0.827    1.575e-001    5.689e-003    
4.045    1.495    47.990      3.999         1.665     2.550    0.490      2.802e-005    0.836    1.377e-001    5.033e-003    
4.045    1.505    47.990      4.025         1.620     2.540    0.492      2.653e-005    0.844    1.301e-001    4.807e-003    
4.045    1.515    47.990      4.052         1.574     2.530    0.494      2.499e-005    0.853    1.392e-001    5.165e-003    
4.045    1.525    47.990      4.079         1.529     2.520    0.497      2.347e-005    0.863    1.258e-001    4.743e-003    
4.045    1.535    47.990      4.106         1.483     2.510    0.499      2.190e-005    0.872    1.170e-001    4.465e-003    
4.045    1.545    47.990      4.132         1.438     2.500    0.501      2.036e-005    0.881    1.032e-001    3.995e-003    
4.045    1.555    47.990      4.159         1.392     2.490    0.503      1.876e-005    0.890    6.530e-002    3.988e-003    
4.045    1.565    47.990      4.186         1.347     2.480    0.505      1.718e-005    0.899    3.741e-002    2.309e-003    
4.045    1.575    47.990      4.213         1.301     2.470    0.508      1.556e-005    0.909    2.004e-002    1.247e-003    
4.045    1.585    47.990      4.239         1.256     2.460    0.510      1.395e-005    0.918    9.427e-003    5.963e-004    
4.045    1.595    47.990      4.266         1.210     2.450    0.512      1.230e-005    0.928    3.467e-003    2.220e-004    
4.045    1.605    47.990      4.293         1.164     2.440    0.514      1.063e-005    0.938    1.789e-004    1.171e-005    
