#Cross section for proton -> n on Ca (Hautala)
#PhysRevC.65.034612
#13 degrees
#E     sig        err
#MeV   mb/sr/MeV  mb/sr/MeV
195.8  1.378e-04  6.152e-04
195.3  9.989e-04  7.470e-04
194.8  2.237e-03  9.880e-04
194.3  3.037e-03  1.118e-03
193.8  3.432e-03  1.184e-03
193.3  5.213e-03  1.468e-03
192.8  7.354e-03  1.722e-03
192.3  1.063e-02  2.142e-03
191.8  1.075e-02  2.154e-03
191.3  1.229e-02  2.274e-03
190.8  1.435e-02  2.510e-03
190.3  1.388e-02  2.492e-03
189.8  1.288e-02  2.383e-03
189.3  1.344e-02  2.404e-03
188.8  1.553e-02  2.580e-03
188.3  1.935e-02  2.899e-03
187.8  1.841e-02  2.866e-03
187.3  1.597e-02  2.644e-03
186.8  1.589e-02  2.658e-03
186.3  1.746e-02  2.748e-03
185.8  1.598e-02  2.640e-03
185.3  1.632e-02  2.658e-03
184.8  2.026e-02  3.001e-03
184.3  1.759e-02  2.774e-03
183.8  1.796e-02  2.812e-03
183.3  2.072e-02  3.015e-03
182.8  3.230e-02  3.682e-03
182.3  6.804e-02  5.451e-03
181.8  1.923e-01  9.193e-03
181.3  2.497e-01  1.060e-02
180.8  2.722e-01  1.098e-02
180.3  2.744e-01  1.105e-02
179.8  2.267e-01  1.005e-02
179.3  2.308e-01  1.016e-02
178.8  2.487e-01  1.056e-02
178.3  2.544e-01  1.068e-02
177.8  2.484e-01  1.056e-02
177.3  2.464e-01  1.053e-02
176.8  2.502e-01  1.057e-02
176.3  2.908e-01  1.146e-02
175.8  3.081e-01  1.179e-02
175.3  3.610e-01  1.273e-02
174.8  4.166e-01  1.371e-02
174.3  4.841e-01  1.478e-02
173.8  5.245e-01  1.540e-02
173.3  5.455e-01  1.574e-02
172.8  5.594e-01  1.588e-02
172.3  5.582e-01  1.588e-02
171.8  5.477e-01  1.573e-02
171.3  5.663e-01  1.600e-02
170.8  5.750e-01  1.615e-02
170.3  5.743e-01  1.617e-02
169.8  6.284e-01  1.691e-02
169.3  6.288e-01  1.691e-02
168.8  6.586e-01  1.729e-02
168.3  6.598e-01  1.731e-02
167.8  6.809e-01  1.758e-02
167.3  7.010e-01  1.790e-02
166.8  6.944e-01  1.779e-02
166.3  6.832e-01  1.765e-02
165.8  6.914e-01  1.775e-02
165.3  7.041e-01  1.797e-02
164.8  7.021e-01  1.791e-02
164.3  7.267e-01  1.826e-02
163.8  7.272e-01  1.830e-02
163.3  7.531e-01  1.865e-02
162.8  7.525e-01  1.860e-02
162.3  7.667e-01  1.877e-02
161.8  7.842e-01  1.902e-02
161.3  7.731e-01  1.887e-02
160.8  8.154e-01  1.944e-02
160.3  8.112e-01  1.935e-02
159.8  8.281e-01  1.956e-02
159.3  8.517e-01  1.987e-02
158.8  8.421e-01  1.976e-02
158.3  8.427e-01  1.978e-02
157.8  8.433e-01  1.978e-02
157.3  8.556e-01  1.993e-02
156.8  8.491e-01  1.988e-02
156.3  8.668e-01  2.008e-02
155.8  8.439e-01  1.980e-02
155.3  8.337e-01  1.975e-02
154.8  8.448e-01  1.989e-02
154.3  8.394e-01  1.980e-02
153.8  8.343e-01  1.977e-02
153.3  8.315e-01  1.973e-02
152.8  8.411e-01  1.988e-02
152.3  8.267e-01  1.973e-02
151.8  8.282e-01  1.971e-02
151.3  8.216e-01  1.969e-02
150.8  8.243e-01  1.972e-02
150.3  8.310e-01  1.985e-02
149.8  8.047e-01  1.951e-02
149.3  8.026e-01  1.949e-02
148.8  7.777e-01  1.920e-02
148.3  7.887e-01  1.936e-02
147.8  7.924e-01  1.940e-02
147.3  7.843e-01  1.932e-02
146.8  7.668e-01  1.909e-02
146.3  7.683e-01  1.921e-02
145.8  7.572e-01  1.904e-02
145.3  7.445e-01  1.891e-02
144.8  7.257e-01  1.868e-02
144.3  7.326e-01  1.876e-02
143.8  7.235e-01  1.863e-02
143.3  7.275e-01  1.875e-02
142.8  7.169e-01  1.857e-02
142.3  7.219e-01  1.864e-02
141.8  6.966e-01  1.837e-02
141.3  6.981e-01  1.841e-02
140.8  6.932e-01  1.836e-02
140.3  6.994e-01  1.844e-02
139.8  6.676e-01  1.801e-02
139.3  6.691e-01  1.803e-02
138.8  6.584e-01  1.792e-02
138.3  6.428e-01  1.773e-02
137.8  6.532e-01  1.783e-02
137.3  6.487e-01  1.782e-02
136.8  6.653e-01  1.804e-02
136.3  6.388e-01  1.772e-02
135.8  6.559e-01  1.796e-02
135.3  6.325e-01  1.769e-02
134.8  6.378e-01  1.776e-02
134.3  6.205e-01  1.751e-02
133.8  6.297e-01  1.769e-02
133.3  6.125e-01  1.745e-02
132.8  6.155e-01  1.752e-02
132.3  6.054e-01  1.739e-02
131.8  5.975e-01  1.727e-02
131.3  6.090e-01  1.749e-02
130.8  5.800e-01  1.705e-02
130.3  6.099e-01  1.753e-02
129.8  5.893e-01  1.723e-02
129.3  5.899e-01  1.723e-02
128.8  6.006e-01  1.744e-02
128.3  5.803e-01  1.713e-02
127.8  5.764e-01  1.711e-02
127.3  5.616e-01  1.688e-02
126.8  5.624e-01  1.692e-02
126.3  5.533e-01  1.678e-02
125.8  5.461e-01  1.672e-02
125.3  5.444e-01  1.668e-02
124.8  5.379e-01  1.662e-02
124.3  5.478e-01  1.673e-02
123.8  5.434e-01  1.675e-02
123.3  5.285e-01  1.654e-02
122.8  5.324e-01  1.658e-02
122.3  5.266e-01  1.655e-02
121.8  5.275e-01  1.655e-02
121.3  5.223e-01  1.646e-02
120.8  5.338e-01  1.670e-02
120.3  5.207e-01  1.652e-02
119.8  5.084e-01  1.636e-02
119.3  5.119e-01  1.643e-02
118.8  4.934e-01  1.612e-02
118.3  5.083e-01  1.641e-02
117.8  5.012e-01  1.633e-02
117.3  4.875e-01  1.613e-02
116.8  4.996e-01  1.628e-02
116.3  4.989e-01  1.634e-02
115.8  4.849e-01  1.610e-02
115.3  4.963e-01  1.630e-02
114.8  4.907e-01  1.622e-02
114.3  4.930e-01  1.634e-02
113.8  4.687e-01  1.592e-02
113.3  4.655e-01  1.591e-02
112.8  4.617e-01  1.581e-02
112.3  4.695e-01  1.600e-02
111.8  4.617e-01  1.587e-02
111.3  4.848e-01  1.634e-02
110.8  4.554e-01  1.579e-02
110.3  4.661e-01  1.604e-02
109.8  4.562e-01  1.587e-02
109.3  4.818e-01  1.635e-02
108.8  4.617e-01  1.601e-02
108.3  4.656e-01  1.615e-02
107.8  4.668e-01  1.618e-02
107.3  4.520e-01  1.592e-02
106.8  4.579e-01  1.605e-02
106.3  4.734e-01  1.641e-02
105.8  4.697e-01  1.632e-02
105.3  4.426e-01  1.583e-02
104.8  4.579e-01  1.615e-02
104.3  4.729e-01  1.642e-02
103.8  4.217e-01  1.549e-02
103.3  2.200e-01  1.127e-02
102.8  4.043e-02  4.409e-03
102.3  7.389e-04  8.333e-04
101.8  0.000e+00  8.360e-04
